atomic number =   78
effective nuclear charge =   78
electron count =   76
net charge =    2
basis set = approximate basis set limit (UGBS)      
exchange correlation functional = PW91PW91            
cutoff radius (picometer) =  500
number of shells =  100
prepared by = Thomas A. Manz      
prepared date = July 2010           
magnetization =    2
density in atomic units:
0.49982000E+06
0.55600970E+03
0.11892608E+03
0.56798191E+02
0.34025330E+02
0.17853537E+02
0.87753258E+01
0.46192188E+01
0.29350789E+01
0.20863602E+01
0.15413688E+01
0.11688875E+01
0.87130988E+00
0.63884789E+00
0.47626454E+00
0.35366803E+00
0.26017085E+00
0.19331878E+00
0.14403379E+00
0.10763926E+00
0.81156097E-01
0.62408023E-01
0.47891006E-01
0.36827512E-01
0.28745905E-01
0.22496985E-01
0.17710214E-01
0.14052497E-01
0.11190220E-01
0.89595029E-02
0.72895489E-02
0.58637899E-02
0.47940407E-02
0.39326721E-02
0.32183144E-02
0.26518523E-02
0.21837067E-02
0.18012533E-02
0.14949789E-02
0.12462131E-02
0.10323020E-02
0.86501054E-03
0.72449457E-03
0.60598127E-03
0.51139039E-03
0.42890551E-03
0.35962954E-03
0.30548364E-03
0.25776704E-03
0.21803884E-03
0.18452937E-03
0.15625090E-03
0.13244247E-03
0.11259773E-03
0.95751842E-04
0.81534010E-04
0.69230213E-04
0.58964550E-04
0.50328435E-04
0.42823052E-04
0.36634239E-04
0.31226864E-04
0.26644511E-04
0.22737755E-04
0.19355468E-04
0.16567388E-04
0.14174916E-04
0.12085514E-04
0.10281228E-04
0.87768985E-05
0.74529366E-05
0.63422990E-05
0.53709919E-05
0.46067557E-05
0.39464321E-05
0.33730096E-05
0.28745558E-05
0.24633923E-05
0.20974396E-05
0.17851632E-05
0.15220751E-05
0.12904029E-05
0.10957480E-05
0.92778066E-06
0.78682211E-06
0.66842335E-06
0.56618637E-06
0.47787302E-06
0.40496820E-06
0.34147462E-06
0.28784024E-06
0.24231394E-06
0.20378039E-06
0.17168699E-06
0.14420155E-06
0.12139070E-06
0.10222793E-06
0.85927788E-07
0.72249634E-07
0.60625887E-07
