atomic number =   82
effective nuclear charge =   82
electron count =   87
net charge =   -5
basis set = approximate basis set limit (UGBS)      
exchange correlation functional = PW91                
cutoff radius (picometer) =  300
number of shells =   50
prepared by = Thomas A. Manz      
prepared date = 2012                
magnetization =    1
density in atomic units:
0.84451695E+05
0.28274570E+03
0.83275093E+02
0.45029556E+02
0.18578140E+02
0.73788900E+01
0.40591993E+01
0.27810535E+01
0.19430581E+01
0.13443122E+01
0.90505010E+00
0.60286343E+00
0.41572499E+00
0.28881538E+00
0.20603013E+00
0.15020370E+00
0.11202832E+00
0.86780809E-01
0.68292461E-01
0.54754425E-01
0.44681709E-01
0.36999106E-01
0.31110009E-01
0.26483502E-01
0.22788003E-01
0.19814106E-01
0.17418779E-01
0.15504888E-01
0.13890148E-01
0.12535729E-01
0.11407595E-01
0.10440045E-01
0.96144462E-02
0.88881524E-02
0.82468279E-02
0.76815626E-02
0.71743773E-02
0.67075975E-02
0.62711183E-02
0.58711600E-02
0.55013299E-02
0.51478697E-02
0.48185685E-02
0.45089601E-02
0.42137504E-02
0.39364113E-02
0.36715989E-02
0.34201809E-02
0.31817975E-02
0.29578644E-02
