atomic number =    4
effective nuclear charge =    4
electron count =    2
net charge =    2
basis set = approximate basis set limit (UGBS)      
exchange correlation functional = PW91                
cutoff radius (picometer) =  300
number of shells =   50
prepared by = Thomas A. Manz      
prepared date = 2011                
magnetization =    0
density in atomic units:
0.18484159E+02
0.78757877E+01
0.35544844E+01
0.16052344E+01
0.73556679E+00
0.31964505E+00
0.14203988E+00
0.66799931E-01
0.30934921E-01
0.14544256E-01
0.67271325E-02
0.30650583E-02
0.14744338E-02
0.69680961E-03
0.33026349E-03
0.15495166E-03
0.71155475E-04
0.33798377E-04
0.15622129E-04
0.70532528E-05
0.31337231E-05
0.13510535E-05
0.55240923E-06
0.19775763E-06
0.78619223E-07
0.71887690E-07
0.32867874E-07
0.14999202E-07
0.68213017E-08
0.46233075E-08
0.43298920E-08
0.19766946E-08
0.88702540E-09
0.38745834E-09
0.16669575E-09
0.69696596E-10
0.28202905E-10
0.11160630E-10
0.43241014E-11
0.16324289E-11
0.61131905E-12
0.21649135E-12
0.74993851E-13
0.26210718E-13
0.87631725E-14
0.28735239E-14
0.90362068E-15
0.27354357E-15
0.83697450E-16
0.25392797E-16
