atomic number =   44
effective nuclear charge =   44
electron count =   41
net charge =    3
basis set = approximate basis set limit (UGBS)      
exchange correlation functional = PW91PW91            
cutoff radius (picometer) =  300
number of shells =   50
prepared by = Thomas A. Manz      
prepared date = July 2010           
magnetization =    5
density in atomic units:
0.11381881E+05
0.12268664E+03
0.48803261E+02
0.22905636E+02
0.86112804E+01
0.33058736E+01
0.19380846E+01
0.14990785E+01
0.11817061E+01
0.89855754E+00
0.64731562E+00
0.44826010E+00
0.31171310E+00
0.21259189E+00
0.14515346E+00
0.98809592E-01
0.67272089E-01
0.47004025E-01
0.32882005E-01
0.23233401E-01
0.16632954E-01
0.12049302E-01
0.88668112E-02
0.66061560E-02
0.49720230E-02
0.37795878E-02
0.29051965E-02
0.22664836E-02
0.17723206E-02
0.13919553E-02
0.11019169E-02
0.87472965E-03
0.69863151E-03
0.55898237E-03
0.44852763E-03
0.36209851E-03
0.29352875E-03
0.23820823E-03
0.19311074E-03
0.15723120E-03
0.12849385E-03
0.10476334E-03
0.85709085E-04
0.70289396E-04
0.57608286E-04
0.47352351E-04
0.38916045E-04
0.32011467E-04
0.26351810E-04
0.21727907E-04
