atomic number =   83
effective nuclear charge =   83
electron count =   85
net charge =   -2
basis set = approximate basis set limit (UGBS)      
exchange correlation functional = PW91                
cutoff radius (picometer) =  300
number of shells =   50
prepared by = Thomas A. Manz      
prepared date = 2012                
magnetization =    1
density in atomic units:
0.87698078E+05
0.28540140E+03
0.86317902E+02
0.45393898E+02
0.18144600E+02
0.72949257E+01
0.41573143E+01
0.28728664E+01
0.19846765E+01
0.13484236E+01
0.89143568E+00
0.58557475E+00
0.40124467E+00
0.27912572E+00
0.20093694E+00
0.14886776E+00
0.11341375E+00
0.89861125E-01
0.72384939E-01
0.59315484E-01
0.49321566E-01
0.41448835E-01
0.35193317E-01
0.30089341E-01
0.25847295E-01
0.22296548E-01
0.19322518E-01
0.16859399E-01
0.14710622E-01
0.12852794E-01
0.11268198E-01
0.98847887E-02
0.86923046E-02
0.76417429E-02
0.67200409E-02
0.59217867E-02
0.52224630E-02
0.46003168E-02
0.40427670E-02
0.35558927E-02
0.31298557E-02
0.27462430E-02
0.24107646E-02
0.21161803E-02
0.18540788E-02
0.16248687E-02
0.14214473E-02
0.12423178E-02
0.10846986E-02
0.94744720E-03
