atomic number =   82
effective nuclear charge =   82
electron count =   86
net charge =   -4
basis set = approximate basis set limit (UGBS)      
exchange correlation functional = PW91                
cutoff radius (picometer) =  300
number of shells =   50
prepared by = Thomas A. Manz      
prepared date = 2012                
magnetization =    0
density in atomic units:
0.84450266E+05
0.28274591E+03
0.83274925E+02
0.45030243E+02
0.18577286E+02
0.73782530E+01
0.40599046E+01
0.27822020E+01
0.19436290E+01
0.13439224E+01
0.90381587E+00
0.60122371E+00
0.41410449E+00
0.28752151E+00
0.20523325E+00
0.14999014E+00
0.11239213E+00
0.87645277E-01
0.69593146E-01
0.56409545E-01
0.46605244E-01
0.39113060E-01
0.33342905E-01
0.28773494E-01
0.25080977E-01
0.22063822E-01
0.19587487E-01
0.17564511E-01
0.15811699E-01
0.14296628E-01
0.12995313E-01
0.11839706E-01
0.10820731E-01
0.98959645E-02
0.90548415E-02
0.82955491E-02
0.76009291E-02
0.69536860E-02
0.63441717E-02
0.57858531E-02
0.52723177E-02
0.47874507E-02
0.43430501E-02
0.39346102E-02
0.35551144E-02
0.32087862E-02
0.28888930E-02
0.25961869E-02
0.23288056E-02
0.20877160E-02
