atomic number =   82
effective nuclear charge =   82
electron count =   83
net charge =   -1
basis set = approximate basis set limit (UGBS)      
exchange correlation functional = PW91                
cutoff radius (picometer) =  300
number of shells =   50
prepared by = Thomas A. Manz      
prepared date = 2012                
magnetization =    3
density in atomic units:
0.84451984E+05
0.28274554E+03
0.83275650E+02
0.45029697E+02
0.18578295E+02
0.73789973E+01
0.40592823E+01
0.27813244E+01
0.19435705E+01
0.13450292E+01
0.90588415E+00
0.60374659E+00
0.41653243E+00
0.28944916E+00
0.20643005E+00
0.15033729E+00
0.11189613E+00
0.86413793E-01
0.67707196E-01
0.53968020E-01
0.43702409E-01
0.35824455E-01
0.29734874E-01
0.24898583E-01
0.20983975E-01
0.17785467E-01
0.15167262E-01
0.13041577E-01
0.11222274E-01
0.96772080E-02
0.83811944E-02
0.72676572E-02
0.63226721E-02
0.55025318E-02
0.47940672E-02
0.41885418E-02
0.36658254E-02
0.32068896E-02
0.28007112E-02
0.24505754E-02
0.21472818E-02
0.18771507E-02
0.16432656E-02
0.14394583E-02
0.12596317E-02
0.11033475E-02
0.96540304E-03
0.84450818E-03
0.73846028E-03
0.64638286E-03
