atomic number =   26
effective nuclear charge =   26
electron count =   20
net charge =    6
basis set = approximate basis set limit (UGBS)      
exchange correlation functional = PW91PW91            
cutoff radius (picometer) =  300
number of shells =   50
prepared by = Thomas A. Manz      
prepared date = July 2010           
magnetization =    2
density in atomic units:
0.21296824E+04
0.78137283E+02
0.21616724E+02
0.64256883E+01
0.39219892E+01
0.29558058E+01
0.20642328E+01
0.13432044E+01
0.79509395E+00
0.45744634E+00
0.24841356E+00
0.13244200E+00
0.72744593E-01
0.39224777E-01
0.21528736E-01
0.11996275E-01
0.66333585E-02
0.38944331E-02
0.22713337E-02
0.13958721E-02
0.85344247E-03
0.53848105E-03
0.35303264E-03
0.22584727E-03
0.15179154E-03
0.97949523E-04
0.66646506E-04
0.45027191E-04
0.30444398E-04
0.21160760E-04
0.14612299E-04
0.10163011E-04
0.71031773E-05
0.49893538E-05
0.35972428E-05
0.25261934E-05
0.17913547E-05
0.12710930E-05
0.88867483E-06
0.64026187E-06
0.45741322E-06
0.33061218E-06
0.24339070E-06
0.17841020E-06
0.13214917E-06
0.97858788E-07
0.72732078E-07
0.53395027E-07
0.39298431E-07
0.28735816E-07
