atomic number =   62
effective nuclear charge =   62
electron count =   60
net charge =    2
basis set = approximate basis set limit (UGBS)      
exchange correlation functional = PW91PW91            
cutoff radius (picometer) =  300
number of shells =   50
prepared by = Thomas A. Manz      
prepared date = July 2010           
magnetization =    6
density in atomic units:
0.34547805E+05
0.20977119E+03
0.57469761E+02
0.19430904E+02
0.13590176E+02
0.84575977E+01
0.45538063E+01
0.24796822E+01
0.14254382E+01
0.92328417E+00
0.64980662E+00
0.48051631E+00
0.36881939E+00
0.28086218E+00
0.21283455E+00
0.15883639E+00
0.11677659E+00
0.86310834E-01
0.62868707E-01
0.45509566E-01
0.32828797E-01
0.23594260E-01
0.16974151E-01
0.12185101E-01
0.87222774E-02
0.62274593E-02
0.44530681E-02
0.32112012E-02
0.23024781E-02
0.16489530E-02
0.11869743E-02
0.85418596E-03
0.61796879E-03
0.44722288E-03
0.32455090E-03
0.23730948E-03
0.17459723E-03
0.12863075E-03
0.94600182E-04
0.70054717E-04
0.52155909E-04
0.38707054E-04
0.28860175E-04
0.21572512E-04
0.16120430E-04
0.12081196E-04
0.90523708E-05
0.67620658E-05
0.50292260E-05
0.37202822E-05
