atomic number =   42
effective nuclear charge =   42
electron count =   43
net charge =   -1
basis set = approximate basis set limit (UGBS)      
exchange correlation functional = PW91PW91            
cutoff radius (picometer) =  300
number of shells =   50
prepared by = Thomas A. Manz      
prepared date = July 2010           
magnetization =    5
density in atomic units:
0.97977764E+04
0.11714407E+03
0.43714752E+02
0.22814140E+02
0.94919910E+01
0.35676224E+01
0.17742699E+01
0.12492793E+01
0.98639196E+00
0.78407717E+00
0.59926313E+00
0.44250679E+00
0.32738116E+00
0.23859672E+00
0.17474347E+00
0.12842576E+00
0.95222525E-01
0.72700568E-01
0.56119855E-01
0.44082269E-01
0.35277270E-01
0.28690660E-01
0.23727383E-01
0.19874284E-01
0.16811838E-01
0.14342826E-01
0.12337721E-01
0.10715718E-01
0.93256710E-02
0.81400117E-02
0.71388553E-02
0.62705385E-02
0.55256742E-02
0.48716576E-02
0.42994791E-02
0.38042560E-02
0.33709775E-02
0.29854940E-02
0.26393612E-02
0.23369030E-02
0.20713541E-02
0.18315638E-02
0.16211517E-02
0.14355200E-02
0.12695848E-02
0.11236157E-02
0.99330943E-03
0.87774766E-03
0.77531463E-03
0.68533258E-03
