atomic number =   11
effective nuclear charge =   11
electron count =   11
net charge =    0
basis set = approximate basis set limit (UGBS)      
exchange correlation functional = PW91PW91            
cutoff radius (picometer) =  300
number of shells =   50
prepared by = Thomas A. Manz      
prepared date = April 2010          
magnetization =    1
density in atomic units:
0.20804091E+03
0.20611135E+02
0.61505432E+01
0.39845052E+01
0.28502350E+01
0.18783513E+01
0.11972598E+01
0.76628870E+00
0.47986665E+00
0.30179027E+00
0.18749781E+00
0.11616065E+00
0.74990407E-01
0.48532832E-01
0.32112617E-01
0.21642506E-01
0.14946359E-01
0.10874171E-01
0.81672734E-02
0.63892980E-02
0.52056848E-02
0.43912539E-02
0.38175336E-02
0.33913560E-02
0.30582251E-02
0.27862845E-02
0.25566132E-02
0.23591600E-02
0.21768583E-02
0.20079208E-02
0.18519253E-02
0.17046530E-02
0.15672219E-02
0.14367922E-02
0.13141552E-02
0.12006105E-02
0.10951122E-02
0.99595182E-03
0.90246147E-03
0.81702980E-03
0.73901960E-03
0.66603121E-03
0.59996004E-03
0.53994835E-03
0.48494185E-03
0.43541504E-03
0.39024497E-03
0.34940994E-03
0.31253314E-03
0.27964904E-03
