atomic number =   78
effective nuclear charge =   78
electron count =   72
net charge =    6
basis set = approximate basis set limit (UGBS)      
exchange correlation functional = PW91PW91            
cutoff radius (picometer) =  500
number of shells =  100
prepared by = Thomas A. Manz      
prepared date = July 2010           
magnetization =    4
density in atomic units:
0.49985100E+06
0.55616846E+03
0.11896626E+03
0.56733368E+02
0.33992863E+02
0.17860094E+02
0.87998991E+01
0.46170101E+01
0.28882504E+01
0.19886141E+01
0.14152613E+01
0.10229490E+01
0.72162437E+00
0.49716806E+00
0.34618342E+00
0.24087188E+00
0.16450223E+00
0.11374269E+00
0.79403587E-01
0.55383522E-01
0.39494518E-01
0.28710701E-01
0.20994481E-01
0.15553849E-01
0.11713509E-01
0.89153312E-02
0.68564932E-02
0.53599887E-02
0.42149462E-02
0.33540786E-02
0.26929225E-02
0.21792292E-02
0.17739164E-02
0.14544760E-02
0.11994514E-02
0.98922476E-03
0.81822276E-03
0.67903561E-03
0.56604459E-03
0.47144180E-03
0.39415536E-03
0.32926610E-03
0.27522157E-03
0.23174347E-03
0.19487731E-03
0.16347117E-03
0.13767350E-03
0.11626393E-03
0.98162767E-04
0.82929597E-04
0.70142472E-04
0.59309674E-04
0.50353312E-04
0.42876774E-04
0.36538237E-04
0.31157062E-04
0.26593003E-04
0.22737022E-04
0.19458719E-04
0.16703456E-04
0.14307032E-04
0.12277593E-04
0.10561927E-04
0.90863150E-05
0.78211788E-05
0.67301980E-05
0.57848629E-05
0.49788505E-05
0.42870834E-05
0.36859965E-05
0.31686914E-05
0.27240746E-05
0.23387413E-05
0.20101018E-05
0.17249957E-05
0.14815106E-05
0.12793188E-05
0.11026210E-05
0.95438963E-06
0.82627020E-06
0.71167534E-06
0.61530545E-06
0.52987616E-06
0.45792780E-06
0.39393231E-06
0.34067736E-06
0.29312091E-06
0.25246987E-06
0.21819055E-06
0.18676778E-06
0.16091282E-06
0.13911996E-06
0.11920505E-06
0.10264618E-06
0.88391722E-07
0.75805438E-07
0.65073650E-07
0.55800079E-07
0.47716910E-07
0.40872209E-07
