atomic number =   65
effective nuclear charge =   65
electron count =   65
net charge =    0
basis set = approximate basis set limit (UGBS)      
exchange correlation functional = PW91PW91            
cutoff radius (picometer) =  300
number of shells =   50
prepared by = Thomas A. Manz      
prepared date = July 2010           
magnetization =    5
density in atomic units:
0.40256293E+05
0.22403308E+03
0.56273972E+02
0.22917036E+02
0.15889919E+02
0.90200729E+01
0.45801611E+01
0.24781089E+01
0.14737130E+01
0.97797346E+00
0.69523060E+00
0.50529116E+00
0.37671152E+00
0.27877802E+00
0.20481931E+00
0.14945459E+00
0.10794584E+00
0.79366133E-01
0.58131278E-01
0.42895712E-01
0.32188442E-01
0.24497736E-01
0.19048659E-01
0.15165026E-01
0.12304438E-01
0.10203262E-01
0.86370781E-02
0.74601155E-02
0.65217963E-02
0.57534184E-02
0.51302663E-02
0.45945640E-02
0.41377116E-02
0.37321919E-02
0.33675693E-02
0.30456947E-02
0.27544664E-02
0.24864678E-02
0.22393228E-02
0.20157734E-02
0.18140827E-02
0.16269252E-02
0.14581172E-02
0.13060388E-02
0.11667808E-02
0.10421476E-02
0.92886598E-03
0.82674529E-03
0.73501532E-03
0.65335439E-03
