atomic number =   11
effective nuclear charge =   11
electron count =   10
net charge =    1
basis set = approximate basis set limit (UGBS)      
exchange correlation functional = PW91                
cutoff radius (picometer) =  300
number of shells =   50
prepared by = Thomas A. Manz      
prepared date = 2011                
magnetization =    0
density in atomic units:
0.20790102E+03
0.20623215E+02
0.61569567E+01
0.39834030E+01
0.28478198E+01
0.18770454E+01
0.11972266E+01
0.76685232E+00
0.48037523E+00
0.30183318E+00
0.18688495E+00
0.11489359E+00
0.73193602E-01
0.46296865E-01
0.29546555E-01
0.18834123E-01
0.11974023E-01
0.78104245E-02
0.50647897E-02
0.32933366E-02
0.21530439E-02
0.14113041E-02
0.93186536E-03
0.61722053E-03
0.40880824E-03
0.27084464E-03
0.17995918E-03
0.12093317E-03
0.80715523E-04
0.53702774E-04
0.35772420E-04
0.23692244E-04
0.15710835E-04
0.10375856E-04
0.68218260E-05
0.45180495E-05
0.30068061E-05
0.19942152E-05
0.13057416E-05
0.86168700E-06
0.57091876E-06
0.37407128E-06
0.24711403E-06
0.16327556E-06
0.10774601E-06
0.71239704E-07
0.50665442E-07
0.35721907E-07
0.26474433E-07
0.18673752E-07
