atomic number =   22
effective nuclear charge =   22
electron count =   22
net charge =    0
basis set = approximate basis set limit (UGBS)      
exchange correlation functional = PW91PW91            
cutoff radius (picometer) =  500
number of shells =  100
prepared by = Thomas A. Manz      
prepared date = July 2010           
magnetization =    2
density in atomic units:
0.80075098E+04
0.96306038E+02
0.39086628E+02
0.13965494E+02
0.48189096E+01
0.24328008E+01
0.17397389E+01
0.14588332E+01
0.12417306E+01
0.10130150E+01
0.78833193E+00
0.60468453E+00
0.44862056E+00
0.32531765E+00
0.23931530E+00
0.17580548E+00
0.12813810E+00
0.94876230E-01
0.71058869E-01
0.53879142E-01
0.41778244E-01
0.33403788E-01
0.27075125E-01
0.22324709E-01
0.18861249E-01
0.16153239E-01
0.14020194E-01
0.12314432E-01
0.10894772E-01
0.97012175E-02
0.87220557E-02
0.78099119E-02
0.70438748E-02
0.63601560E-02
0.57346839E-02
0.51757749E-02
0.46645645E-02
0.42014699E-02
0.37888638E-02
0.34140535E-02
0.30680038E-02
0.27604164E-02
0.24790459E-02
0.22268689E-02
0.20006634E-02
0.17897973E-02
0.16009338E-02
0.14359292E-02
0.12838511E-02
0.11473689E-02
0.10246182E-02
0.91383059E-03
0.81566209E-03
0.72844228E-03
0.64995594E-03
0.57949440E-03
0.51589869E-03
0.45931249E-03
0.40901371E-03
0.36415234E-03
0.32418140E-03
0.28842050E-03
0.25671473E-03
0.22839631E-03
0.20310108E-03
0.18095829E-03
0.16117640E-03
0.14333037E-03
0.12744665E-03
0.11330378E-03
0.10085026E-03
0.89804009E-04
0.79925703E-04
0.71209477E-04
0.63383253E-04
0.56409954E-04
0.50191647E-04
0.44665583E-04
0.39742987E-04
0.35401514E-04
0.31531457E-04
0.28062583E-04
0.24982859E-04
0.22246208E-04
0.19841211E-04
0.17699551E-04
0.15777392E-04
0.14062611E-04
0.12543140E-04
0.11181065E-04
0.99801782E-05
0.89056412E-05
0.79455167E-05
0.70996457E-05
0.63416828E-05
0.56665440E-05
0.50600838E-05
0.45135175E-05
0.40259720E-05
0.35944954E-05
