atomic number =   76
effective nuclear charge =   76
electron count =   71
net charge =    5
basis set = approximate basis set limit (UGBS)      
exchange correlation functional = PW91PW91            
cutoff radius (picometer) =  300
number of shells =   50
prepared by = Thomas A. Manz      
prepared date = July 2010           
magnetization =    3
density in atomic units:
0.66480352E+05
0.26583972E+03
0.67387764E+02
0.39601788E+02
0.20314405E+02
0.85529394E+01
0.40346184E+01
0.23793857E+01
0.15497264E+01
0.10560023E+01
0.70657152E+00
0.46374097E+00
0.30878460E+00
0.20170766E+00
0.13228536E+00
0.86760163E-01
0.56490730E-01
0.37971251E-01
0.25368774E-01
0.17350862E-01
0.11931812E-01
0.83761718E-02
0.60430835E-02
0.43740412E-02
0.32595624E-02
0.24213002E-02
0.18514619E-02
0.14287194E-02
0.11073033E-02
0.86971343E-03
0.68537553E-03
0.54186961E-03
0.42968892E-03
0.34097332E-03
0.27239122E-03
0.21702268E-03
0.17460219E-03
0.14070416E-03
0.11273901E-03
0.91024704E-04
0.73301228E-04
0.58954953E-04
0.47737009E-04
0.38632705E-04
0.31300184E-04
0.25393165E-04
0.20561352E-04
0.16656577E-04
0.13511805E-04
0.10967390E-04
