atomic number =   44
effective nuclear charge =   44
electron count =   35
net charge =    9
basis set = approximate basis set limit (UGBS)      
exchange correlation functional = PW91PW91            
cutoff radius (picometer) =  300
number of shells =   50
prepared by = Thomas A. Manz      
prepared date = July 2010           
magnetization =    1
density in atomic units:
0.11388261E+05
0.12167825E+03
0.48463528E+02
0.22826729E+02
0.85691071E+01
0.32013471E+01
0.17343024E+01
0.12180655E+01
0.86318326E+00
0.58355451E+00
0.36563832E+00
0.21489035E+00
0.12585333E+00
0.70863955E-01
0.39473183E-01
0.21680476E-01
0.11755134E-01
0.65770522E-02
0.36445458E-02
0.20255423E-02
0.11342732E-02
0.63803210E-03
0.36294645E-03
0.20787603E-03
0.11944830E-03
0.68980138E-04
0.40086619E-04
0.23674938E-04
0.13861254E-04
0.80216450E-05
0.45757665E-05
0.25243858E-05
0.13576189E-05
0.74087768E-06
0.52993653E-06
0.35271108E-06
0.23249599E-06
0.16010281E-06
0.12049085E-06
0.10069828E-06
0.89446367E-07
0.82647560E-07
0.78506801E-07
0.75062502E-07
0.71602038E-07
0.67967626E-07
0.64253200E-07
0.60386171E-07
0.56523529E-07
0.52593663E-07
