atomic number =   28
effective nuclear charge =   28
electron count =   26
net charge =    2
basis set = approximate basis set limit (UGBS)      
exchange correlation functional = PW91PW91            
cutoff radius (picometer) =  300
number of shells =   50
prepared by = Thomas A. Manz      
prepared date = July 2010           
magnetization =    2
density in atomic units:
0.26779524E+04
0.85144684E+02
0.21837242E+02
0.81549816E+01
0.56941586E+01
0.41294503E+01
0.27433608E+01
0.17465488E+01
0.10760525E+01
0.65765882E+00
0.40044829E+00
0.24258077E+00
0.15481347E+00
0.99735990E-01
0.65489881E-01
0.43354210E-01
0.29328082E-01
0.20455662E-01
0.14514113E-01
0.10297673E-01
0.75150179E-02
0.55197137E-02
0.40834383E-02
0.31015319E-02
0.23388935E-02
0.18124362E-02
0.13964209E-02
0.11005583E-02
0.86834788E-03
0.68166887E-03
0.54187159E-03
0.43130352E-03
0.34623110E-03
0.27833576E-03
0.22299212E-03
0.18129167E-03
0.14680406E-03
0.11876074E-03
0.96286858E-04
0.78056844E-04
0.63939493E-04
0.52054689E-04
0.42388532E-04
0.34704059E-04
0.28271364E-04
0.23099477E-04
0.18824516E-04
0.15369038E-04
0.12516171E-04
0.10230300E-04
