atomic number =   26
effective nuclear charge =   26
electron count =   24
net charge =    2
basis set = approximate basis set limit (UGBS)      
exchange correlation functional = PW91PW91            
cutoff radius (picometer) =  300
number of shells =   50
prepared by = Thomas A. Manz      
prepared date = July 2010           
magnetization =    4
density in atomic units:
0.21251477E+04
0.77656540E+02
0.22196041E+02
0.69946971E+01
0.42868476E+01
0.32772911E+01
0.23793070E+01
0.16364723E+01
0.10639166E+01
0.68112087E+00
0.42625880E+00
0.26535964E+00
0.17179950E+00
0.11124075E+00
0.73309749E-01
0.48758000E-01
0.32644011E-01
0.22594539E-01
0.15686667E-01
0.11047696E-01
0.78682890E-02
0.56716423E-02
0.41529797E-02
0.30643442E-02
0.22867632E-02
0.17142761E-02
0.13017490E-02
0.10007246E-02
0.77043474E-03
0.59656682E-03
0.46505686E-03
0.36354456E-03
0.28581990E-03
0.22516538E-03
0.17821815E-03
0.14169283E-03
0.11337389E-03
0.90851434E-04
0.72619529E-04
0.58334113E-04
0.46928693E-04
0.37663005E-04
0.30304829E-04
0.24400895E-04
0.19646139E-04
0.15844518E-04
0.12758986E-04
0.10244680E-04
0.82076713E-05
0.65758018E-05
