atomic number =    6
effective nuclear charge =    6
electron count =    2
net charge =    4
basis set = approximate basis set limit (UGBS)      
exchange correlation functional = PW91PW91            
cutoff radius (picometer) =  300
number of shells =   50
prepared by = Thomas A. Manz      
prepared date = July 2010           
magnetization =    0
density in atomic units:
0.50378887E+02
0.13837249E+02
0.41830144E+01
0.12598293E+01
0.38601378E+00
0.10860940E+00
0.31165862E-01
0.97502349E-02
0.29457347E-02
0.89695648E-03
0.26413653E-03
0.74473566E-04
0.22782926E-04
0.67107931E-05
0.18731379E-05
0.48069273E-06
0.10570152E-06
0.78180200E-07
0.34198454E-07
0.13477748E-07
0.52417235E-08
0.18474964E-08
0.61081407E-09
0.19368512E-09
0.56612152E-10
0.16089288E-10
0.43815507E-11
0.12326070E-11
0.31527716E-12
0.74881866E-13
0.17880483E-13
0.44133898E-14
0.10245823E-14
0.23241787E-15
0.51627102E-16
0.12255822E-16
0.27754763E-17
0.57133344E-18
0.10346742E-18
0.21660225E-19
0.37658439E-20
0.70440619E-21
0.11454504E-21
0.17785125E-22
0.25166444E-23
0.42298150E-24
0.60388905E-25
0.69004198E-26
0.97295333E-27
0.10208921E-27
