atomic number =   13
effective nuclear charge =   13
electron count =   12
net charge =    1
basis set = approximate basis set limit (UGBS)      
exchange correlation functional = PW91PW91            
cutoff radius (picometer) =  300
number of shells =   50
prepared by = Thomas A. Manz      
prepared date = July 2010           
magnetization =    0
density in atomic units:
0.30904657E+03
0.23079840E+02
0.93509445E+01
0.61128211E+01
0.37706387E+01
0.20747335E+01
0.11092280E+01
0.60687768E+00
0.32870653E+00
0.18484414E+00
0.10841903E+00
0.68795875E-01
0.49466409E-01
0.38401421E-01
0.31751040E-01
0.27129553E-01
0.23515128E-01
0.20591628E-01
0.17929317E-01
0.15520279E-01
0.13354363E-01
0.11411866E-01
0.97073084E-02
0.82107550E-02
0.69038561E-02
0.57753138E-02
0.48181489E-02
0.40253401E-02
0.33426171E-02
0.27661496E-02
0.22902235E-02
0.18910958E-02
0.15628737E-02
0.12886814E-02
0.10618907E-02
0.87728753E-03
0.72577805E-03
0.59974892E-03
0.49436989E-03
0.40867465E-03
0.33874065E-03
0.28002699E-03
0.23215191E-03
0.19282734E-03
0.16008328E-03
0.13321222E-03
0.11081348E-03
0.92204747E-04
0.76757002E-04
0.64024505E-04
