atomic number =   85
effective nuclear charge =   85
electron count =   81
net charge =    4
basis set = approximate basis set limit (UGBS)      
exchange correlation functional = PW91                
cutoff radius (picometer) =  300
number of shells =   50
prepared by = Thomas A. Manz      
prepared date = 2012                
magnetization =    1
density in atomic units:
0.94409852E+05
0.29071518E+03
0.92489128E+02
0.45654968E+02
0.17266678E+02
0.72260909E+01
0.43758974E+01
0.30305204E+01
0.20354991E+01
0.13351254E+01
0.85347629E+00
0.54448456E+00
0.36407202E+00
0.24652743E+00
0.17156601E+00
0.12138717E+00
0.86943433E-01
0.63978419E-01
0.47064152E-01
0.34707226E-01
0.25639249E-01
0.18908843E-01
0.13957120E-01
0.10273981E-01
0.75262403E-02
0.54894071E-02
0.39974684E-02
0.29264821E-02
0.21243962E-02
0.15350258E-02
0.11110744E-02
0.80088287E-03
0.57809922E-03
0.41554152E-03
0.29799208E-03
0.21430898E-03
0.15417709E-03
0.11044516E-03
0.78504876E-04
0.55880686E-04
0.39790728E-04
0.28048367E-04
0.19762301E-04
0.13899439E-04
0.97089214E-05
0.67913193E-05
0.47947378E-05
0.33753631E-05
0.23750817E-05
0.16749864E-05
