atomic number =   78
effective nuclear charge =   78
electron count =   71
net charge =    7
basis set = approximate basis set limit (UGBS)      
exchange correlation functional = PW91PW91            
cutoff radius (picometer) =  400
number of shells =   75
prepared by = Thomas A. Manz      
prepared date = July 2010           
magnetization =    3
density in atomic units:
0.72181883E+05
0.39571063E+03
0.95647949E+02
0.53895393E+02
0.31285316E+02
0.14309106E+02
0.67374535E+01
0.36745679E+01
0.23025570E+01
0.15579641E+01
0.10760822E+01
0.73369902E+00
0.48919240E+00
0.32371464E+00
0.21243332E+00
0.13888426E+00
0.90577565E-01
0.59633028E-01
0.40094886E-01
0.27440019E-01
0.19208798E-01
0.13631960E-01
0.98354537E-02
0.71858549E-02
0.53694625E-02
0.40656608E-02
0.31101396E-02
0.24370721E-02
0.18982316E-02
0.15096389E-02
0.12077992E-02
0.97768358E-03
0.79212914E-03
0.64072601E-03
0.52434736E-03
0.43076259E-03
0.35246185E-03
0.29090248E-03
0.24054803E-03
0.19862263E-03
0.16359201E-03
0.13554572E-03
0.11261402E-03
0.93386618E-04
0.77770026E-04
0.64577514E-04
0.53996017E-04
0.44843237E-04
0.37408772E-04
0.31161511E-04
0.26114392E-04
0.21807229E-04
0.18289562E-04
0.15355996E-04
0.12951223E-04
0.10877387E-04
0.90940139E-05
0.76496699E-05
0.64499218E-05
0.54167517E-05
0.45501724E-05
0.38127448E-05
0.32062276E-05
0.26866849E-05
0.22515130E-05
0.18941436E-05
0.15919031E-05
0.13428163E-05
0.11340352E-05
0.96276506E-06
0.81467272E-06
0.68793020E-06
0.58264914E-06
0.49195211E-06
0.41693778E-06
