atomic number =   56
effective nuclear charge =   56
electron count =   53
net charge =    3
basis set = approximate basis set limit (UGBS)      
exchange correlation functional = PW91PW91            
cutoff radius (picometer) =  300
number of shells =   50
prepared by = Thomas A. Manz      
prepared date = July 2010           
magnetization =    1
density in atomic units:
0.24842465E+05
0.17863893E+03
0.61141949E+02
0.16780359E+02
0.90669212E+01
0.66251302E+01
0.42616076E+01
0.25156000E+01
0.14171698E+01
0.83618581E+00
0.53324753E+00
0.37427899E+00
0.28772259E+00
0.22664310E+00
0.18023109E+00
0.14186926E+00
0.11000332E+00
0.85178554E-01
0.64740084E-01
0.48604853E-01
0.36160145E-01
0.26648147E-01
0.19544270E-01
0.14235647E-01
0.10286181E-01
0.73833643E-02
0.52839732E-02
0.38007349E-02
0.27100113E-02
0.19244439E-02
0.13712856E-02
0.97502093E-03
0.69615908E-03
0.49657578E-03
0.35464994E-03
0.25499013E-03
0.18411962E-03
0.13292527E-03
0.95538009E-04
0.68984365E-04
0.50020422E-04
0.36024005E-04
0.25956630E-04
0.18675140E-04
0.13351953E-04
0.95363666E-05
0.67545025E-05
0.47517519E-05
0.33135564E-05
0.22981587E-05
