atomic number =   85
effective nuclear charge =   85
electron count =   83
net charge =    2
basis set = approximate basis set limit (UGBS)      
exchange correlation functional = PW91                
cutoff radius (picometer) =  300
number of shells =   50
prepared by = Thomas A. Manz      
prepared date = 2012                
magnetization =    3
density in atomic units:
0.94406312E+05
0.29072116E+03
0.92499069E+02
0.45652901E+02
0.17273670E+02
0.72464852E+01
0.43900781E+01
0.30317895E+01
0.20283339E+01
0.13272552E+01
0.85057867E+00
0.54903483E+00
0.37557092E+00
0.26383063E+00
0.19280179E+00
0.14474238E+00
0.11083084E+00
0.87185934E-01
0.68761408E-01
0.54387435E-01
0.43070421E-01
0.34041133E-01
0.26898054E-01
0.21185922E-01
0.16607091E-01
0.12960457E-01
0.10094370E-01
0.78885863E-02
0.61193136E-02
0.47268569E-02
0.36542697E-02
0.28144140E-02
0.21690053E-02
0.16653613E-02
0.12759847E-02
0.97980339E-03
0.75262593E-03
0.57627034E-03
0.43869144E-03
0.33456201E-03
0.25553469E-03
0.19399099E-03
0.14750514E-03
0.11224892E-03
0.85133339E-04
0.64674459E-04
0.49017366E-04
0.37104222E-04
0.28040891E-04
0.21223750E-04
