atomic number =   68
effective nuclear charge =   68
electron count =   64
net charge =    4
basis set = approximate basis set limit (UGBS)      
exchange correlation functional = PW91                
cutoff radius (picometer) =  300
number of shells =   50
prepared by = Thomas A. Manz      
prepared date = 2011                
magnetization =    4
density in atomic units:
0.46566914E+05
0.23721184E+03
0.56487160E+02
0.27219788E+02
0.17776558E+02
0.91341324E+01
0.44096003E+01
0.24006925E+01
0.14702697E+01
0.99408823E+00
0.69766563E+00
0.48841700E+00
0.34620497E+00
0.24029173E+00
0.16455214E+00
0.11071519E+00
0.72958216E-01
0.48574362E-01
0.31731132E-01
0.20563189E-01
0.13291785E-01
0.85435016E-02
0.54981583E-02
0.35335717E-02
0.22586163E-02
0.14384948E-02
0.91585220E-03
0.58802339E-03
0.37343692E-03
0.23521138E-03
0.14847596E-03
0.92919741E-04
0.58098311E-04
0.35975983E-04
0.22067756E-04
0.13513017E-04
0.82353099E-05
0.49631749E-05
0.29482478E-05
0.17439204E-05
0.10430473E-05
0.61246902E-06
0.35684766E-06
0.21321547E-06
0.13302602E-06
0.82572093E-07
0.55875169E-07
0.34966416E-07
0.21959499E-07
0.14251712E-07
