atomic number =   58
effective nuclear charge =   58
electron count =   59
net charge =   -1
basis set = approximate basis set limit (UGBS)      
exchange correlation functional = PW91                
cutoff radius (picometer) =  300
number of shells =   50
prepared by = Thomas A. Manz      
prepared date = 2011                
magnetization =    3
density in atomic units:
0.27836693E+05
0.18944984E+03
0.59961403E+02
0.16907297E+02
0.10427402E+02
0.72933669E+01
0.43494930E+01
0.24476156E+01
0.13672056E+01
0.83719379E+00
0.56775773E+00
0.42078009E+00
0.33288562E+00
0.26496005E+00
0.21099469E+00
0.16581115E+00
0.12875615E+00
0.10039806E+00
0.77543072E-01
0.59802849E-01
0.46291724E-01
0.36035620E-01
0.28361270E-01
0.22573631E-01
0.18174727E-01
0.14846884E-01
0.12323237E-01
0.10437703E-01
0.89429971E-02
0.77602584E-02
0.68298308E-02
0.60709929E-02
0.54518287E-02
0.49261358E-02
0.44765929E-02
0.40923832E-02
0.37543783E-02
0.34499154E-02
0.31714069E-02
0.29208376E-02
0.26944336E-02
0.24819830E-02
0.22876300E-02
0.21088868E-02
0.19417406E-02
0.17880382E-02
0.16442885E-02
0.15108936E-02
0.13868384E-02
0.12728852E-02
