atomic number =   44
effective nuclear charge =   44
electron count =   47
net charge =   -3
basis set = approximate basis set limit (UGBS)      
exchange correlation functional = PW91PW91            
cutoff radius (picometer) =  300
number of shells =   50
prepared by = Thomas A. Manz      
prepared date = July 2010           
magnetization =    3
density in atomic units:
0.11382049E+05
0.12279524E+03
0.48838100E+02
0.22915676E+02
0.86138411E+01
0.33089938E+01
0.19479738E+01
0.15134387E+01
0.12073462E+01
0.93039066E+00
0.68692613E+00
0.48958051E+00
0.35347006E+00
0.25367117E+00
0.18393086E+00
0.13424760E+00
0.10000622E+00
0.76745078E-01
0.60082093E-01
0.47486339E-01
0.38584266E-01
0.31766884E-01
0.26488317E-01
0.22596443E-01
0.19326581E-01
0.16868286E-01
0.14756190E-01
0.13108602E-01
0.11691853E-01
0.10440098E-01
0.93973642E-02
0.84806513E-02
0.76899901E-02
0.69812960E-02
0.63348082E-02
0.57757227E-02
0.52600713E-02
0.47850935E-02
0.43487879E-02
0.39505949E-02
0.35944942E-02
0.32591114E-02
0.29529044E-02
0.26752702E-02
0.24175656E-02
0.21844690E-02
0.19698825E-02
0.17746600E-02
0.15964472E-02
0.14362654E-02
