atomic number =   81
effective nuclear charge =   81
electron count =   78
net charge =    3
basis set = approximate basis set limit (UGBS)      
exchange correlation functional = PW91                
cutoff radius (picometer) =  300
number of shells =   50
prepared by = Thomas A. Manz      
prepared date = 2011                
magnetization =    0
density in atomic units:
0.81265336E+05
0.28004630E+03
0.80300011E+02
0.44523354E+02
0.18984211E+02
0.74709215E+01
0.39680467E+01
0.26997530E+01
0.19161227E+01
0.13543541E+01
0.92732471E+00
0.62064290E+00
0.42279536E+00
0.28413260E+00
0.19164751E+00
0.12879656E+00
0.86283274E-01
0.59071813E-01
0.40195588E-01
0.27390826E-01
0.18737456E-01
0.12841976E-01
0.88604540E-02
0.61352551E-02
0.42551393E-02
0.29592013E-02
0.20690779E-02
0.14648731E-02
0.10333617E-02
0.72892033E-03
0.51740953E-03
0.36715547E-03
0.26193587E-03
0.18690850E-03
0.13368296E-03
0.96398842E-04
0.69960784E-04
0.50890700E-04
0.36982747E-04
0.27054268E-04
0.19923562E-04
0.14641995E-04
0.10807596E-04
0.80038317E-05
0.59148902E-05
0.43703344E-05
0.32143125E-05
0.23592706E-05
0.17186583E-05
0.12636790E-05
