atomic number =   20
effective nuclear charge =   20
electron count =   17
net charge =    3
basis set = approximate basis set limit (UGBS)      
exchange correlation functional = PW91PW91            
cutoff radius (picometer) =  300
number of shells =   50
prepared by = Thomas A. Manz      
prepared date = July 2010           
magnetization =    1
density in atomic units:
0.96606708E+03
0.48927902E+02
0.21720345E+02
0.78467259E+01
0.27605727E+01
0.12424800E+01
0.88590616E+00
0.74688810E+00
0.61474890E+00
0.48242739E+00
0.35746813E+00
0.25335082E+00
0.17865719E+00
0.12234741E+00
0.82855433E-01
0.55134330E-01
0.36105618E-01
0.23940247E-01
0.15632577E-01
0.10153385E-01
0.65878206E-02
0.42644721E-02
0.27703303E-02
0.17997071E-02
0.11662085E-02
0.75448590E-03
0.48892095E-03
0.32026434E-03
0.20798060E-03
0.13447086E-03
0.87276741E-04
0.56372613E-04
0.36506604E-04
0.23532168E-04
0.15134078E-04
0.98072578E-05
0.63553771E-05
0.41163398E-05
0.26560840E-05
0.17201854E-05
0.11358522E-05
0.74475025E-06
0.49188793E-06
0.32513066E-06
0.21484875E-06
0.14186988E-06
0.93242953E-07
0.61146984E-07
0.39861312E-07
0.26141890E-07
