atomic number =   22
effective nuclear charge =   22
electron count =   17
net charge =    5
basis set = approximate basis set limit (UGBS)      
exchange correlation functional = PW91                
cutoff radius (picometer) =  400
number of shells =   75
prepared by = Thomas A. Manz      
prepared date = 2011                
magnetization =    1
density in atomic units:
0.12793484E+04
0.72790543E+02
0.31965994E+02
0.11897612E+02
0.41765947E+01
0.19645072E+01
0.14462479E+01
0.11989725E+01
0.95430201E+00
0.71383119E+00
0.51069540E+00
0.35115063E+00
0.23352058E+00
0.15268390E+00
0.98114274E-01
0.62021367E-01
0.38545385E-01
0.23780672E-01
0.14697783E-01
0.91020735E-02
0.56303455E-02
0.34748779E-02
0.21289445E-02
0.13101038E-02
0.80911047E-03
0.50146464E-03
0.31270631E-03
0.19697426E-03
0.12358885E-03
0.78010642E-04
0.50257855E-04
0.32397813E-04
0.20689919E-04
0.13116766E-04
0.83148807E-05
0.52130022E-05
0.32001333E-05
0.19554257E-05
0.12748941E-05
0.81100615E-06
0.50250111E-06
0.32611081E-06
0.21089916E-06
0.15525565E-06
0.14299052E-06
0.12465091E-06
0.11874596E-06
0.10617762E-06
0.91435702E-07
0.78557761E-07
0.67511372E-07
0.57821627E-07
0.50054911E-07
0.42329393E-07
0.36607226E-07
0.29808362E-07
0.24440018E-07
0.19234447E-07
0.15085806E-07
0.12240402E-07
0.96265644E-08
0.75268325E-08
0.57250253E-08
0.42876058E-08
0.31620428E-08
0.23817659E-08
0.18834028E-08
0.14555911E-08
0.11358351E-08
0.85932600E-09
0.64005018E-09
0.47283766E-09
0.34285422E-09
0.25069913E-09
0.17608172E-09
