atomic number =   84
effective nuclear charge =   84
electron count =   86
net charge =   -2
basis set = approximate basis set limit (UGBS)      
exchange correlation functional = PW91                
cutoff radius (picometer) =  300
number of shells =   50
prepared by = Thomas A. Manz      
prepared date = 2012                
magnetization =    0
density in atomic units:
0.91015398E+05
0.28805463E+03
0.89403503E+02
0.45599781E+02
0.17705818E+02
0.72537427E+01
0.42721810E+01
0.29583831E+01
0.20119295E+01
0.13399746E+01
0.87062335E+00
0.56624949E+00
0.38813710E+00
0.27280650E+00
0.20003501E+00
0.15175889E+00
0.11861572E+00
0.96158244E-01
0.79027794E-01
0.65805182E-01
0.55359617E-01
0.46879765E-01
0.39960846E-01
0.34188226E-01
0.29304767E-01
0.25160138E-01
0.21656839E-01
0.18739199E-01
0.16187804E-01
0.13984530E-01
0.12111563E-01
0.10486275E-01
0.90951715E-02
0.78824088E-02
0.68305503E-02
0.59305136E-02
0.51532267E-02
0.44713593E-02
0.38695286E-02
0.33524688E-02
0.29068082E-02
0.25121523E-02
0.21728096E-02
0.18794303E-02
0.16226963E-02
0.14017529E-02
0.12087603E-02
0.10414445E-02
0.89655101E-03
0.77224680E-03
