atomic number =   83
effective nuclear charge =   83
electron count =   82
net charge =    1
basis set = approximate basis set limit (UGBS)      
exchange correlation functional = PW91                
cutoff radius (picometer) =  300
number of shells =   50
prepared by = Thomas A. Manz      
prepared date = 2012                
magnetization =    2
density in atomic units:
0.87700664E+05
0.28539978E+03
0.86317429E+02
0.45393906E+02
0.18145483E+02
0.72924981E+01
0.41537290E+01
0.28712862E+01
0.19861610E+01
0.13520777E+01
0.89575070E+00
0.58912933E+00
0.40322211E+00
0.27908280E+00
0.19885986E+00
0.14490505E+00
0.10784421E+00
0.83079331E-01
0.64673834E-01
0.50964620E-01
0.40576905E-01
0.32516103E-01
0.26241256E-01
0.21246834E-01
0.17220769E-01
0.13964663E-01
0.11344224E-01
0.92656938E-02
0.75375717E-02
0.61210780E-02
0.49803527E-02
0.40443190E-02
0.32889976E-02
0.26687998E-02
0.21637511E-02
0.17585519E-02
0.14307395E-02
0.11619845E-02
0.94041857E-03
0.76287327E-03
0.62017108E-03
0.50235860E-03
0.40790613E-03
0.33177246E-03
0.26955167E-03
0.21951161E-03
0.17864465E-03
0.14545121E-03
0.11846414E-03
0.96701719E-04
