atomic number =    2
effective nuclear charge =    2
electron count =    2
net charge =    0
basis set = approximate basis set limit (UGBS)      
exchange correlation functional = PW91PW91            
cutoff radius (picometer) =  300
number of shells =   50
prepared by = Thomas A. Manz      
prepared date = April 2010          
magnetization =    0
density in atomic units:
0.26554399E+01
0.17296731E+01
0.11551746E+01
0.77088797E+00
0.51932192E+00
0.34191635E+00
0.22923966E+00
0.15834710E+00
0.10902729E+00
0.75982749E-01
0.52650470E-01
0.36439549E-01
0.25954485E-01
0.18406142E-01
0.13155683E-01
0.93932645E-02
0.67002261E-02
0.48722527E-02
0.35297316E-02
0.25645727E-02
0.18723327E-02
0.13707082E-02
0.10094151E-02
0.74511819E-03
0.55001664E-03
0.40612102E-03
0.30054321E-03
0.22422631E-03
0.16643693E-03
0.12329294E-03
0.91676600E-04
0.68019901E-04
0.50589573E-04
0.37521037E-04
0.27800783E-04
0.20665462E-04
0.15358348E-04
0.11391174E-04
0.84129260E-05
0.62348881E-05
0.46271030E-05
0.33902154E-05
0.24760725E-05
0.18325184E-05
0.13563947E-05
0.10073600E-05
0.74660011E-06
0.55316104E-06
0.40974496E-06
0.30451068E-06
