atomic number =    6
effective nuclear charge =    6
electron count =    7
net charge =   -1
basis set = approximate basis set limit (UGBS)      
exchange correlation functional = PW91PW91            
cutoff radius (picometer) =  300
number of shells =   50
prepared by = Thomas A. Manz      
prepared date = July 2010           
magnetization =    3
density in atomic units:
0.51950977E+02
0.14251770E+02
0.43602138E+01
0.14279609E+01
0.58646041E+00
0.33188844E+00
0.25638333E+00
0.22207274E+00
0.19364163E+00
0.16699494E+00
0.14081961E+00
0.11673266E+00
0.96996188E-01
0.79678431E-01
0.65351106E-01
0.53296641E-01
0.43320641E-01
0.35550401E-01
0.29067863E-01
0.23792244E-01
0.19524844E-01
0.16047938E-01
0.13240149E-01
0.10941115E-01
0.90445355E-02
0.74802530E-02
0.61993520E-02
0.51666419E-02
0.42944071E-02
0.35676274E-02
0.29724143E-02
0.24751937E-02
0.20664092E-02
0.17239286E-02
0.14391876E-02
0.12054184E-02
0.10117918E-02
0.84900594E-03
0.71117107E-03
0.59761875E-03
0.50362927E-03
0.42361193E-03
0.35730450E-03
0.30204680E-03
0.25529915E-03
0.21636182E-03
0.18336774E-03
0.15553052E-03
0.13201426E-03
0.11231725E-03
