atomic number =   60
effective nuclear charge =   60
electron count =   59
net charge =    1
basis set = approximate basis set limit (UGBS)      
exchange correlation functional = PW91                
cutoff radius (picometer) =  300
number of shells =   50
prepared by = Thomas A. Manz      
prepared date = 2011                
magnetization =    5
density in atomic units:
0.31068316E+05
0.19968338E+03
0.58719406E+02
0.17825693E+02
0.11995699E+02
0.79313874E+01
0.44916377E+01
0.24843061E+01
0.14039611E+01
0.89077723E+00
0.61547709E+00
0.45541945E+00
0.35469121E+00
0.27440235E+00
0.21270062E+00
0.16183895E+00
0.12198202E+00
0.92226319E-01
0.69103636E-01
0.51678501E-01
0.38674917E-01
0.29120093E-01
0.22154873E-01
0.16987229E-01
0.13176774E-01
0.10348925E-01
0.82541080E-02
0.67262971E-02
0.55328240E-02
0.46141306E-02
0.38989119E-02
0.33289609E-02
0.28688407E-02
0.24855607E-02
0.21658030E-02
0.18959026E-02
0.16655842E-02
0.14642649E-02
0.12845270E-02
0.11289117E-02
0.99273748E-03
0.87011920E-03
0.76298922E-03
0.66843454E-03
0.58446371E-03
0.51078416E-03
0.44538474E-03
0.38783651E-03
0.33715431E-03
0.29308701E-03
