atomic number =   46
effective nuclear charge =   46
electron count =   42
net charge =    4
basis set = approximate basis set limit (UGBS)      
exchange correlation functional = PW91PW91            
cutoff radius (picometer) =  300
number of shells =   50
prepared by = Thomas A. Manz      
prepared date = July 2010           
magnetization =    4
density in atomic units:
0.13139102E+05
0.12915326E+03
0.53298374E+02
0.22296324E+02
0.77753401E+01
0.32896042E+01
0.22202997E+01
0.17337532E+01
0.12890511E+01
0.90978581E+00
0.60651886E+00
0.39132130E+00
0.25730741E+00
0.16789252E+00
0.11153730E+00
0.75324096E-01
0.51770940E-01
0.37184563E-01
0.27110528E-01
0.20274216E-01
0.15448692E-01
0.11998090E-01
0.95115602E-02
0.76211547E-02
0.62031667E-02
0.50812997E-02
0.42267339E-02
0.35564180E-02
0.30069717E-02
0.25636260E-02
0.22008261E-02
0.18983902E-02
0.16467783E-02
0.14328093E-02
0.12524965E-02
0.10981209E-02
0.96750719E-03
0.85354183E-03
0.75221161E-03
0.66519430E-03
0.58879051E-03
0.52073196E-03
0.46166580E-03
0.40953484E-03
0.36335326E-03
0.32272117E-03
0.28657124E-03
0.25444309E-03
0.22602316E-03
0.20096809E-03
