atomic number =   68
effective nuclear charge =   68
electron count =   68
net charge =    0
basis set = approximate basis set limit (UGBS)      
exchange correlation functional = PW91PW91            
cutoff radius (picometer) =  300
number of shells =   50
prepared by = Thomas A. Manz      
prepared date = July 2010           
magnetization =    2
density in atomic units:
0.46564789E+05
0.23681760E+03
0.56892361E+02
0.27183775E+02
0.17984793E+02
0.93314075E+01
0.45854292E+01
0.25130322E+01
0.15225245E+01
0.10315498E+01
0.72367084E+00
0.51491970E+00
0.37567058E+00
0.27012348E+00
0.19465682E+00
0.13887265E+00
0.98855577E-01
0.71715593E-01
0.52167363E-01
0.38460381E-01
0.28857566E-01
0.22131836E-01
0.17416772E-01
0.14013457E-01
0.11532553E-01
0.96821571E-02
0.82850158E-02
0.72232452E-02
0.63502141E-02
0.56297588E-02
0.50261561E-02
0.45034820E-02
0.40481607E-02
0.36397208E-02
0.32738042E-02
0.29469142E-02
0.26527268E-02
0.23834228E-02
0.21344281E-02
0.19112697E-02
0.17105241E-02
0.15253667E-02
0.13597924E-02
0.12110624E-02
0.10762428E-02
0.95603667E-03
0.84751501E-03
0.75036887E-03
0.66354673E-03
0.58683235E-03
