atomic number =   85
effective nuclear charge =   85
electron count =   80
net charge =    5
basis set = approximate basis set limit (UGBS)      
exchange correlation functional = PW91                
cutoff radius (picometer) =  300
number of shells =   50
prepared by = Thomas A. Manz      
prepared date = 2012                
magnetization =    0
density in atomic units:
0.94411836E+05
0.29071100E+03
0.92481461E+02
0.45656536E+02
0.17260935E+02
0.72110286E+01
0.43661447E+01
0.30302496E+01
0.20407424E+01
0.13400896E+01
0.85422021E+00
0.53961658E+00
0.35441789E+00
0.23327911E+00
0.15627669E+00
0.10545531E+00
0.71465045E-01
0.49653478E-01
0.34328200E-01
0.23731362E-01
0.16410749E-01
0.11312584E-01
0.78015961E-02
0.53614918E-02
0.36622479E-02
0.24882827E-02
0.16869805E-02
0.11510856E-02
0.77711418E-03
0.52137283E-03
0.35031853E-03
0.23401795E-03
0.15641980E-03
0.10390834E-03
0.68735193E-04
0.45579196E-04
0.30176509E-04
0.19867637E-04
0.12939063E-04
0.84231187E-05
0.54584407E-05
0.34622672E-05
0.21853361E-05
0.13862752E-05
0.87167660E-06
0.54131630E-06
0.32991352E-06
0.19759200E-06
0.11595635E-06
0.68866171E-07
