atomic number =   83
effective nuclear charge =   83
electron count =   83
net charge =    0
basis set = approximate basis set limit (UGBS)      
exchange correlation functional = PW91PW91            
cutoff radius (picometer) =  300
number of shells =   50
prepared by = Thomas A. Manz      
prepared date = July 2010           
magnetization =    3
density in atomic units:
0.87699516E+05
0.28540079E+03
0.86318062E+02
0.45393738E+02
0.18145397E+02
0.72944899E+01
0.41559858E+01
0.28721116E+01
0.19852254E+01
0.13500787E+01
0.89361298E+00
0.58760870E+00
0.40268308E+00
0.27968159E+00
0.20053281E+00
0.14752169E+00
0.11121933E+00
0.86984210E-01
0.68941154E-01
0.55430111E-01
0.45106944E-01
0.36999442E-01
0.30593053E-01
0.25404377E-01
0.21138489E-01
0.17612066E-01
0.14706909E-01
0.12346456E-01
0.10333642E-01
0.86407261E-02
0.72403220E-02
0.60593355E-02
0.50796210E-02
0.42518452E-02
0.35581910E-02
0.29851187E-02
0.25077276E-02
0.21045697E-02
0.17617274E-02
0.14783392E-02
0.12433324E-02
0.10428734E-02
0.87682105E-03
0.73844509E-03
0.62154914E-03
0.52429875E-03
0.44206015E-03
0.37292863E-03
0.31476220E-03
0.26623349E-03
