atomic number =   78
effective nuclear charge =   78
electron count =   77
net charge =    1
basis set = approximate basis set limit (UGBS)      
exchange correlation functional = PW91PW91            
cutoff radius (picometer) =  300
number of shells =   50
prepared by = Thomas A. Manz      
prepared date = July 2010           
magnetization =    1
density in atomic units:
0.72175914E+05
0.27176807E+03
0.72053909E+02
0.42011528E+02
0.19985058E+02
0.80620298E+01
0.39194791E+01
0.24649637E+01
0.17093402E+01
0.12232202E+01
0.86521548E+00
0.60219854E+00
0.42843890E+00
0.30330235E+00
0.21662459E+00
0.15501879E+00
0.11195165E+00
0.82683049E-01
0.61400600E-01
0.45651186E-01
0.34400109E-01
0.26014477E-01
0.19782955E-01
0.15216354E-01
0.11672882E-01
0.90515623E-02
0.70159081E-02
0.55121775E-02
0.43248744E-02
0.33884731E-02
0.26765352E-02
0.21172669E-02
0.16861982E-02
0.13451152E-02
0.10742914E-02
0.86625677E-03
0.70006517E-03
0.56636526E-03
0.45849089E-03
0.37247755E-03
0.30455910E-03
0.24828722E-03
0.20290809E-03
0.16632871E-03
0.13608833E-03
0.11162707E-03
0.91435351E-04
0.74933654E-04
0.61358252E-04
0.50339146E-04
