atomic number =   78
effective nuclear charge =   78
electron count =   74
net charge =    4
basis set = approximate basis set limit (UGBS)      
exchange correlation functional = PW91PW91            
cutoff radius (picometer) =  500
number of shells =  100
prepared by = Thomas A. Manz      
prepared date = July 2010           
magnetization =    4
density in atomic units:
0.49983500E+06
0.55612524E+03
0.11894022E+03
0.56771065E+02
0.34011993E+02
0.17856369E+02
0.87880478E+01
0.46216164E+01
0.29182367E+01
0.20457621E+01
0.14871863E+01
0.11037754E+01
0.80257547E+00
0.57211637E+00
0.41339543E+00
0.29804549E+00
0.21195495E+00
0.15243408E+00
0.11030138E+00
0.79920813E-01
0.58794960E-01
0.44111736E-01
0.33158429E-01
0.25110826E-01
0.19324642E-01
0.14972546E-01
0.11700068E-01
0.92545152E-02
0.73591075E-02
0.59033306E-02
0.48007169E-02
0.38927787E-02
0.31958334E-02
0.26374029E-02
0.21788112E-02
0.18077502E-02
0.15011365E-02
0.12493142E-02
0.10452751E-02
0.87662955E-03
0.73322339E-03
0.61749318E-03
0.51993923E-03
0.43845124E-03
0.37159177E-03
0.31347864E-03
0.26477402E-03
0.22574705E-03
0.19172276E-03
0.16313486E-03
0.13895698E-03
0.11844226E-03
0.10121455E-03
0.86733024E-04
0.74410258E-04
0.63950465E-04
0.54910397E-04
0.47307029E-04
0.40854022E-04
0.35284433E-04
0.30588169E-04
0.26493364E-04
0.22993227E-04
0.19970228E-04
0.17320597E-04
0.15084767E-04
0.13125818E-04
0.11395599E-04
0.98916007E-05
0.86138452E-05
0.74858822E-05
0.65124673E-05
0.56534427E-05
0.49206601E-05
0.42755360E-05
0.37474613E-05
0.32859002E-05
0.28974503E-05
0.25475756E-05
0.22380941E-05
0.19670285E-05
0.17220538E-05
0.15104093E-05
0.13243641E-05
0.11614676E-05
0.10177722E-05
0.89236732E-06
0.77900040E-06
0.68178088E-06
0.59429664E-06
0.51853084E-06
0.45262570E-06
0.39418006E-06
0.34354883E-06
0.29915486E-06
0.26003093E-06
0.22642237E-06
0.19737442E-06
0.17038009E-06
0.14842418E-06
