atomic number =   44
effective nuclear charge =   44
electron count =   43
net charge =    1
basis set = approximate basis set limit (UGBS)      
exchange correlation functional = PW91PW91            
cutoff radius (picometer) =  300
number of shells =   50
prepared by = Thomas A. Manz      
prepared date = July 2010           
magnetization =    3
density in atomic units:
0.11380845E+05
0.12286146E+03
0.48824013E+02
0.22908854E+02
0.86134262E+01
0.33041389E+01
0.19435577E+01
0.15180558E+01
0.12150465E+01
0.94168389E+00
0.69557065E+00
0.49674657E+00
0.35746625E+00
0.25384158E+00
0.18119593E+00
0.12945041E+00
0.92875361E-01
0.68261445E-01
0.50295778E-01
0.37326444E-01
0.27986299E-01
0.21127529E-01
0.16098674E-01
0.12358535E-01
0.95188254E-02
0.73731756E-02
0.57402891E-02
0.45195846E-02
0.35564047E-02
0.28031310E-02
0.22248952E-02
0.17697931E-02
0.14166686E-02
0.11365052E-02
0.91462792E-03
0.74152625E-03
0.60385303E-03
0.49260590E-03
0.40190181E-03
0.32942471E-03
0.27130818E-03
0.22300538E-03
0.18388171E-03
0.15201719E-03
0.12558325E-03
0.10400023E-03
0.86056563E-04
0.71212453E-04
0.58936879E-04
0.48858299E-04
