atomic number =   78
effective nuclear charge =   78
electron count =   76
net charge =    2
basis set = approximate basis set limit (UGBS)      
exchange correlation functional = PW91PW91            
cutoff radius (picometer) =  400
number of shells =   75
prepared by = Thomas A. Manz      
prepared date = July 2010           
magnetization =    2
density in atomic units:
0.72175227E+05
0.39571930E+03
0.95669106E+02
0.53957371E+02
0.31330976E+02
0.14286460E+02
0.67160020E+01
0.37109706E+01
0.24086487E+01
0.17227727E+01
0.12656219E+01
0.92754751E+00
0.67495447E+00
0.49034134E+00
0.35573295E+00
0.25738817E+00
0.18633959E+00
0.13589258E+00
0.10021636E+00
0.75005002E-01
0.56337297E-01
0.42741567E-01
0.32411814E-01
0.24998868E-01
0.19303761E-01
0.15034161E-01
0.11854104E-01
0.93208412E-02
0.74308603E-02
0.58836224E-02
0.47711809E-02
0.38550594E-02
0.31063966E-02
0.25228343E-02
0.20604427E-02
0.16850181E-02
0.13822552E-02
0.11329375E-02
0.93610975E-03
0.77329815E-03
0.63914305E-03
0.53108175E-03
0.44099046E-03
0.36751913E-03
0.30638307E-03
0.25666828E-03
0.21398759E-03
0.18017091E-03
0.15038995E-03
0.12639887E-03
0.10576426E-03
0.89305409E-04
0.75067008E-04
0.63250460E-04
0.53359952E-04
0.45013345E-04
0.37982805E-04
0.32057462E-04
0.27069887E-04
0.22868619E-04
0.19272109E-04
0.16311642E-04
0.13763778E-04
0.11645583E-04
0.98131168E-05
0.82324850E-05
0.69770963E-05
0.58302689E-05
0.49297141E-05
0.41678736E-05
0.35393421E-05
0.29957293E-05
0.25252873E-05
0.21280248E-05
0.17953961E-05
