atomic number =   79
effective nuclear charge =   79
electron count =   76
net charge =    3
basis set = approximate basis set limit (UGBS)      
exchange correlation functional = PW91PW91            
cutoff radius (picometer) =  300
number of shells =   50
prepared by = Thomas A. Manz      
prepared date = July 2010           
magnetization =    2
density in atomic units:
0.75135914E+05
0.27459973E+03
0.74674713E+02
0.42967617E+02
0.19705870E+02
0.78490992E+01
0.38982410E+01
0.25045640E+01
0.17349074E+01
0.12234976E+01
0.83989751E+00
0.56602746E+00
0.38838750E+00
0.26355988E+00
0.18064108E+00
0.12447070E+00
0.85957482E-01
0.61200690E-01
0.43585408E-01
0.31535383E-01
0.22991586E-01
0.16971538E-01
0.12732236E-01
0.95939236E-02
0.73277932E-02
0.56013754E-02
0.43442710E-02
0.34012678E-02
0.26651246E-02
0.21009971E-02
0.16639141E-02
0.13203252E-02
0.10519073E-02
0.83874754E-03
0.67155500E-03
0.53874915E-03
0.43495273E-03
0.35152028E-03
0.28325585E-03
0.22951580E-03
0.18613043E-03
0.15073882E-03
0.12259005E-03
0.99814330E-04
0.81351325E-04
0.66439046E-04
0.54276697E-04
0.44356053E-04
0.36317768E-04
0.29793797E-04
