atomic number =   55
effective nuclear charge =   55
electron count =   54
net charge =    1
basis set = approximate basis set limit (UGBS)      
exchange correlation functional = PW91                
cutoff radius (picometer) =  300
number of shells =   50
prepared by = Thomas A. Manz      
prepared date = 2011                
magnetization =    0
density in atomic units:
0.23430111E+05
0.17308084E+03
0.61564827E+02
0.17034145E+02
0.85129890E+01
0.62883916E+01
0.42301683E+01
0.25916495E+01
0.14924334E+01
0.87972897E+00
0.54919773E+00
0.37607443E+00
0.28641552E+00
0.22774433E+00
0.18573610E+00
0.15179637E+00
0.12328625E+00
0.10033230E+00
0.80566794E-01
0.64118788E-01
0.50686371E-01
0.39784398E-01
0.31123422E-01
0.24226209E-01
0.18749103E-01
0.14443003E-01
0.11106784E-01
0.85792998E-02
0.65828753E-02
0.50358460E-02
0.38615246E-02
0.29548055E-02
0.22665942E-02
0.17352825E-02
0.13281688E-02
0.10205797E-02
0.78583101E-03
0.60410559E-03
0.46241694E-03
0.35499100E-03
0.27318276E-03
0.20916715E-03
0.16047781E-03
0.12328022E-03
0.94460120E-04
0.72474628E-04
0.55480861E-04
0.42455264E-04
0.32472217E-04
0.24871879E-04
