atomic number =   26
effective nuclear charge =   26
electron count =   21
net charge =    5
basis set = approximate basis set limit (UGBS)      
exchange correlation functional = PW91PW91            
cutoff radius (picometer) =  300
number of shells =   50
prepared by = Thomas A. Manz      
prepared date = July 2010           
magnetization =    3
density in atomic units:
0.21281194E+04
0.77978493E+02
0.21829569E+02
0.66553669E+01
0.40707750E+01
0.30837798E+01
0.21776037E+01
0.14374350E+01
0.87699461E+00
0.52010649E+00
0.29480577E+00
0.16374916E+00
0.93993865E-01
0.53261317E-01
0.30640237E-01
0.17810252E-01
0.10376838E-01
0.63543040E-02
0.39058661E-02
0.24774687E-02
0.15905907E-02
0.10445112E-02
0.70442510E-03
0.47617924E-03
0.32976826E-03
0.22719464E-03
0.16042720E-03
0.11430008E-03
0.81436825E-04
0.58669819E-04
0.42379907E-04
0.30635871E-04
0.22192877E-04
0.16039015E-04
0.11625330E-04
0.83664090E-05
0.60566767E-05
0.43728678E-05
0.31182612E-05
0.22203585E-05
0.15796905E-05
0.11173551E-05
0.80043236E-06
0.56923636E-06
0.40695281E-06
0.28821071E-06
0.20328379E-06
0.14262703E-06
0.99777353E-07
0.69664026E-07
