atomic number =   85
effective nuclear charge =   85
electron count =   82
net charge =    3
basis set = approximate basis set limit (UGBS)      
exchange correlation functional = PW91                
cutoff radius (picometer) =  300
number of shells =   50
prepared by = Thomas A. Manz      
prepared date = 2012                
magnetization =    2
density in atomic units:
0.94408016E+05
0.29071832E+03
0.92494911E+02
0.45653736E+02
0.17270880E+02
0.72378516E+01
0.43838811E+01
0.30310733E+01
0.20313888E+01
0.13308157E+01
0.85217267E+00
0.54749709E+00
0.37099859E+00
0.25662377E+00
0.18370998E+00
0.13451919E+00
0.10015408E+00
0.76615646E-01
0.58685273E-01
0.45073688E-01
0.34662563E-01
0.26603265E-01
0.20418447E-01
0.15620385E-01
0.11890591E-01
0.90093119E-02
0.68127699E-02
0.51725232E-02
0.38957000E-02
0.29209412E-02
0.21924460E-02
0.16390590E-02
0.12263901E-02
0.91387791E-03
0.67944656E-03
0.50632050E-03
0.37747208E-03
0.28035440E-03
0.20683875E-03
0.15282835E-03
0.11306375E-03
0.83015213E-04
0.60984177E-04
0.44775741E-04
0.32728341E-04
0.23944745E-04
0.17445360E-04
0.12678355E-04
0.92029231E-05
0.66935772E-05
