atomic number =   28
effective nuclear charge =   28
electron count =   24
net charge =    4
basis set = approximate basis set limit (UGBS)      
exchange correlation functional = PW91PW91            
cutoff radius (picometer) =  300
number of shells =   50
prepared by = Thomas A. Manz      
prepared date = July 2010           
magnetization =    4
density in atomic units:
0.26800471E+04
0.85359612E+02
0.21670202E+02
0.79596300E+01
0.55742941E+01
0.39811468E+01
0.25902193E+01
0.16126233E+01
0.94734436E+00
0.55170906E+00
0.31275254E+00
0.17685848E+00
0.10489547E+00
0.62360596E-01
0.38111180E-01
0.23804586E-01
0.15061892E-01
0.10032054E-01
0.67402264E-02
0.46762698E-02
0.32792010E-02
0.23455478E-02
0.17164398E-02
0.12546581E-02
0.93699683E-03
0.69400290E-03
0.52581338E-03
0.40058623E-03
0.30542837E-03
0.23553881E-03
0.18206799E-03
0.14120639E-03
0.10990762E-03
0.85722284E-04
0.67481727E-04
0.52945416E-04
0.42029798E-04
0.33463337E-04
0.26492869E-04
0.21139231E-04
0.16775874E-04
0.13301801E-04
0.10600942E-04
0.84179483E-05
0.66868020E-05
0.53088756E-05
0.42391989E-05
0.34272718E-05
0.27716860E-05
0.22459003E-05
