atomic number =   58
effective nuclear charge =   58
electron count =   58
net charge =    0
basis set = approximate basis set limit (UGBS)      
exchange correlation functional = PW91PW91            
cutoff radius (picometer) =  300
number of shells =   50
prepared by = Thomas A. Manz      
prepared date = July 2010           
magnetization =    2
density in atomic units:
0.27836850E+05
0.18940971E+03
0.59990238E+02
0.16925484E+02
0.10433535E+02
0.73026137E+01
0.43639183E+01
0.24648433E+01
0.13809096E+01
0.84668499E+00
0.57280338E+00
0.42279738E+00
0.33253324E+00
0.26304784E+00
0.20806335E+00
0.16242673E+00
0.12508939E+00
0.96755765E-01
0.74045599E-01
0.56552123E-01
0.43347172E-01
0.33403091E-01
0.26023209E-01
0.20533729E-01
0.16390076E-01
0.13306607E-01
0.10981016E-01
0.92639839E-02
0.79126302E-02
0.68399878E-02
0.59989151E-02
0.53083482E-02
0.47410410E-02
0.42551067E-02
0.38311186E-02
0.34676129E-02
0.31426898E-02
0.28475712E-02
0.25774802E-02
0.23336872E-02
0.21150189E-02
0.19109704E-02
0.17259003E-02
0.15582549E-02
0.14035114E-02
0.12638747E-02
0.11358256E-02
0.10196153E-02
0.91403828E-03
0.81928907E-03
