atomic number =   28
effective nuclear charge =   28
electron count =   23
net charge =    5
basis set = approximate basis set limit (UGBS)      
exchange correlation functional = PW91PW91            
cutoff radius (picometer) =  300
number of shells =   50
prepared by = Thomas A. Manz      
prepared date = July 2010           
magnetization =    5
density in atomic units:
0.26811780E+04
0.85340965E+02
0.21454647E+02
0.78313637E+01
0.54713278E+01
0.38883843E+01
0.24930863E+01
0.15166215E+01
0.86933547E+00
0.49002951E+00
0.26881120E+00
0.14584190E+00
0.83235696E-01
0.47623917E-01
0.27959591E-01
0.16738594E-01
0.10225528E-01
0.65810313E-02
0.43080216E-02
0.28860900E-02
0.19753573E-02
0.13725640E-02
0.96893520E-03
0.69072616E-03
0.49546763E-03
0.35739454E-03
0.25972468E-03
0.19131033E-03
0.14074301E-03
0.10371375E-03
0.76971599E-04
0.57232563E-04
0.42886564E-04
0.32234482E-04
0.24310253E-04
0.18478744E-04
0.14093148E-04
0.10767699E-04
0.82126444E-05
0.62744657E-05
0.48116649E-05
0.36642448E-05
0.27838621E-05
0.21200233E-05
0.16178262E-05
0.12472095E-05
0.96085262E-06
0.74043561E-06
0.57027302E-06
0.43982300E-06
