atomic number =    3
effective nuclear charge =    3
electron count =    5
net charge =   -2
basis set = approximate basis set limit (UGBS)      
exchange correlation functional = PW91PW91            
cutoff radius (picometer) =  300
number of shells =   50
prepared by = Thomas A. Manz      
prepared date = July 2010           
magnetization =    1
density in atomic units:
0.86390629E+01
0.45557995E+01
0.25020387E+01
0.13747184E+01
0.76506758E+00
0.41045892E+00
0.22526343E+00
0.12942103E+00
0.74249908E-01
0.43834917E-01
0.26348209E-01
0.16533690E-01
0.11457783E-01
0.85461298E-02
0.69477716E-02
0.60565756E-02
0.55554151E-02
0.52807201E-02
0.51016542E-02
0.49714241E-02
0.48590358E-02
0.47498294E-02
0.46386407E-02
0.45197005E-02
0.43950053E-02
0.42622224E-02
0.41270545E-02
0.39912057E-02
0.38504505E-02
0.37087335E-02
0.35676202E-02
0.34261325E-02
0.32865386E-02
0.31468626E-02
0.30095035E-02
0.28744494E-02
0.27433934E-02
0.26139470E-02
0.24844722E-02
0.23597123E-02
0.22377167E-02
0.21168457E-02
0.20008192E-02
0.18881273E-02
0.17785756E-02
0.16732052E-02
0.15708160E-02
0.14717934E-02
0.13767320E-02
0.12861299E-02
