atomic number =    2
effective nuclear charge =    2
electron count =    3
net charge =   -1
basis set = approximate basis set limit (UGBS)      
exchange correlation functional = PW91                
cutoff radius (picometer) =  300
number of shells =   50
prepared by = Thomas A. Manz      
prepared date = 2011                
magnetization =    1
density in atomic units:
0.26565497E+01
0.17303915E+01
0.11556374E+01
0.77119994E+00
0.51951122E+00
0.34202480E+00
0.22931331E+00
0.15839972E+00
0.10905998E+00
0.76002710E-01
0.52667242E-01
0.36461871E-01
0.25986135E-01
0.18448243E-01
0.13206892E-01
0.94529018E-02
0.67668892E-02
0.49450621E-02
0.36084324E-02
0.26496870E-02
0.19642930E-02
0.14701036E-02
0.11168077E-02
0.86084026E-03
0.67448179E-03
0.53915271E-03
0.44242360E-03
0.37445559E-03
0.32487945E-03
0.28994135E-03
0.26612947E-03
0.25004876E-03
0.24034701E-03
0.23341240E-03
0.23142877E-03
0.23100352E-03
0.23257353E-03
0.23555255E-03
0.23940240E-03
0.24420777E-03
0.24923286E-03
0.25618848E-03
0.26467149E-03
0.27233106E-03
0.28000254E-03
0.28707649E-03
0.29380480E-03
0.30034504E-03
0.30641517E-03
0.31152047E-03
