atomic number =   76
effective nuclear charge =   76
electron count =   72
net charge =    4
basis set = approximate basis set limit (UGBS)      
exchange correlation functional = PW91PW91            
cutoff radius (picometer) =  300
number of shells =   50
prepared by = Thomas A. Manz      
prepared date = July 2010           
magnetization =    4
density in atomic units:
0.66479258E+05
0.26582907E+03
0.67379799E+02
0.39616375E+02
0.20315634E+02
0.85450544E+01
0.40332246E+01
0.23898981E+01
0.15729321E+01
0.10866315E+01
0.74121189E+00
0.49723437E+00
0.33911580E+00
0.22778457E+00
0.15372184E+00
0.10369003E+00
0.69734327E-01
0.48224099E-01
0.33260953E-01
0.23289761E-01
0.16449718E-01
0.11789626E-01
0.86170547E-02
0.63456637E-02
0.47543575E-02
0.35753103E-02
0.27371547E-02
0.21208909E-02
0.16480443E-02
0.12907280E-02
0.10169531E-02
0.80367282E-03
0.63833193E-03
0.50783658E-03
0.40591953E-03
0.32537821E-03
0.26250508E-03
0.21206873E-03
0.17088951E-03
0.13846396E-03
0.11233230E-03
0.90976158E-04
0.73992269E-04
0.60262057E-04
0.49087925E-04
0.40066745E-04
0.32703840E-04
0.26689573E-04
0.21812612E-04
0.17851289E-04
