atomic number =   44
effective nuclear charge =   44
electron count =   40
net charge =    4
basis set = approximate basis set limit (UGBS)      
exchange correlation functional = PW91PW91            
cutoff radius (picometer) =  300
number of shells =   50
prepared by = Thomas A. Manz      
prepared date = July 2010           
magnetization =    4
density in atomic units:
0.11382451E+05
0.12254130E+03
0.48784031E+02
0.22903091E+02
0.86084061E+01
0.33032105E+01
0.19284058E+01
0.14777598E+01
0.11520458E+01
0.86333519E+00
0.61173052E+00
0.41455394E+00
0.28193465E+00
0.18771785E+00
0.12491997E+00
0.82744941E-01
0.54941602E-01
0.37490878E-01
0.25711054E-01
0.17785329E-01
0.12543615E-01
0.89638783E-02
0.65131621E-02
0.48254188E-02
0.36049646E-02
0.27406830E-02
0.21019306E-02
0.16425662E-02
0.12876581E-02
0.10121760E-02
0.80339663E-03
0.63933595E-03
0.51225245E-03
0.41105968E-03
0.33019920E-03
0.26732846E-03
0.21687099E-03
0.17589619E-03
0.14259323E-03
0.11600602E-03
0.95024021E-04
0.77555742E-04
0.63395899E-04
0.52013394E-04
0.42550546E-04
0.34929508E-04
0.28664872E-04
0.23558068E-04
0.19364805E-04
0.15923491E-04
