atomic number =   45
effective nuclear charge =   45
electron count =   43
net charge =    2
basis set = approximate basis set limit (UGBS)      
exchange correlation functional = PW91PW91            
cutoff radius (picometer) =  300
number of shells =   50
prepared by = Thomas A. Manz      
prepared date = July 2010           
magnetization =    3
density in atomic units:
0.12237443E+05
0.12608860E+03
0.51171898E+02
0.22681353E+02
0.81835890E+01
0.32793374E+01
0.21001470E+01
0.16794988E+01
0.13175282E+01
0.99306846E+00
0.70763439E+00
0.49001265E+00
0.34216389E+00
0.23510262E+00
0.16273867E+00
0.11308669E+00
0.78285642E-01
0.55822793E-01
0.39599031E-01
0.28648458E-01
0.20760503E-01
0.15254844E-01
0.11424216E-01
0.85363686E-02
0.65080361E-02
0.49255164E-02
0.38088041E-02
0.29625322E-02
0.23074965E-02
0.18168170E-02
0.14347888E-02
0.11369098E-02
0.90426160E-03
0.72063983E-03
0.57894434E-03
0.46442263E-03
0.37665883E-03
0.30628606E-03
0.24807450E-03
0.20253581E-03
0.16493586E-03
0.13439087E-03
0.11014506E-03
0.90195157E-04
0.74030977E-04
0.60788570E-04
0.49898597E-04
0.40902305E-04
0.33601442E-04
0.27598795E-04
