atomic number =   81
effective nuclear charge =   81
electron count =   77
net charge =    4
basis set = approximate basis set limit (UGBS)      
exchange correlation functional = PW91                
cutoff radius (picometer) =  300
number of shells =   50
prepared by = Thomas A. Manz      
prepared date = 2011                
magnetization =    1
density in atomic units:
0.81266930E+05
0.28005862E+03
0.80299194E+02
0.44503372E+02
0.18984203E+02
0.74754400E+01
0.39602673E+01
0.26807778E+01
0.18852377E+01
0.13191962E+01
0.88987952E+00
0.58618808E+00
0.39215297E+00
0.25789732E+00
0.17007813E+00
0.11169630E+00
0.72809562E-01
0.48601028E-01
0.32144304E-01
0.21378899E-01
0.14243146E-01
0.95392130E-02
0.64605637E-02
0.43882858E-02
0.30075461E-02
0.20652337E-02
0.14368128E-02
0.10134458E-02
0.71441132E-03
0.50568290E-03
0.36020787E-03
0.25664398E-03
0.18362991E-03
0.13122283E-03
0.93851566E-04
0.67319219E-04
0.48498081E-04
0.34885190E-04
0.24915689E-04
0.17822156E-04
0.12759503E-04
0.90662970E-05
0.64303522E-05
0.45408970E-05
0.31861223E-05
0.22344361E-05
0.15550510E-05
0.10833337E-05
0.75074990E-06
0.52189188E-06
