atomic number =    9
effective nuclear charge =    9
electron count =   11
net charge =   -2
basis set = approximate basis set limit (UGBS)      
exchange correlation functional = PW91                
cutoff radius (picometer) =  300
number of shells =   50
prepared by = Thomas A. Manz      
prepared date = 2011                
magnetization =    1
density in atomic units:
0.13178221E+03
0.18909601E+02
0.44820204E+01
0.21667583E+01
0.16044754E+01
0.12258768E+01
0.91376430E+00
0.67364597E+00
0.48506194E+00
0.34887785E+00
0.24819101E+00
0.17623173E+00
0.12879689E+00
0.94134346E-01
0.69665611E-01
0.51833048E-01
0.38809285E-01
0.29747710E-01
0.22897942E-01
0.17804714E-01
0.14010121E-01
0.11141826E-01
0.89788567E-02
0.73147463E-02
0.60175168E-02
0.50009093E-02
0.42041284E-02
0.35856341E-02
0.30788046E-02
0.26663761E-02
0.23339812E-02
0.20583670E-02
0.18316207E-02
0.16398085E-02
0.14773585E-02
0.13402945E-02
0.12226120E-02
0.11192770E-02
0.10271843E-02
0.94663067E-03
0.87553135E-03
0.81044569E-03
0.75233128E-03
0.69985189E-03
0.65165758E-03
0.60789037E-03
0.56737493E-03
0.52998157E-03
0.49535750E-03
0.46352987E-03
