atomic number =   40
effective nuclear charge =   40
electron count =   39
net charge =    1
basis set = approximate basis set limit (UGBS)      
exchange correlation functional = PW91                
cutoff radius (picometer) =  400
number of shells =   75
prepared by = Thomas A. Manz      
prepared date = 2011                
magnetization =    3
density in atomic units:
0.83725254E+04
0.16153142E+03
0.46701485E+02
0.29092154E+02
0.16081654E+02
0.72936292E+01
0.33081417E+01
0.16991484E+01
0.10771348E+01
0.81756169E+00
0.66328424E+00
0.53897226E+00
0.42997685E+00
0.33733457E+00
0.26041910E+00
0.19819200E+00
0.14923050E+00
0.11209186E+00
0.84671095E-01
0.64550482E-01
0.49558524E-01
0.38461860E-01
0.30065682E-01
0.23950072E-01
0.19293495E-01
0.15761493E-01
0.13076331E-01
0.10924237E-01
0.92389947E-02
0.78333504E-02
0.67595504E-02
0.58427844E-02
0.50527658E-02
0.43933652E-02
0.38411170E-02
0.33639800E-02
0.29496413E-02
0.25889776E-02
0.22818483E-02
0.20093198E-02
0.17681592E-02
0.15603942E-02
0.13767345E-02
0.12152921E-02
0.10732218E-02
0.94868912E-03
0.83781657E-03
0.74125646E-03
0.65404031E-03
0.57809264E-03
0.51061256E-03
0.45201115E-03
0.39948514E-03
0.35324343E-03
0.31279973E-03
0.27673098E-03
0.24466077E-03
0.21646057E-03
0.19166589E-03
0.16967197E-03
0.15009448E-03
0.13298762E-03
0.11779382E-03
0.10433951E-03
0.92385024E-04
0.81770959E-04
0.72526673E-04
0.64201595E-04
0.56839959E-04
0.50352821E-04
0.44676784E-04
0.39567301E-04
0.35014604E-04
0.31014264E-04
0.27500771E-04
