atomic number =   26
effective nuclear charge =   26
electron count =   23
net charge =    3
basis set = approximate basis set limit (UGBS)      
exchange correlation functional = PW91PW91            
cutoff radius (picometer) =  300
number of shells =   50
prepared by = Thomas A. Manz      
prepared date = July 2010           
magnetization =    5
density in atomic units:
0.21258030E+04
0.77732277E+02
0.22121590E+02
0.69390836E+01
0.42540517E+01
0.32465498E+01
0.23393490E+01
0.15894504E+01
0.10168781E+01
0.63691640E+00
0.38784969E+00
0.23307219E+00
0.14528686E+00
0.90126008E-01
0.56695290E-01
0.35876054E-01
0.22840962E-01
0.15065182E-01
0.99858176E-02
0.67116176E-02
0.45857527E-02
0.31778603E-02
0.22423964E-02
0.16050671E-02
0.11622903E-02
0.85136323E-03
0.63147617E-03
0.47630959E-03
0.35999602E-03
0.27313034E-03
0.20876284E-03
0.15970200E-03
0.12271285E-03
0.94185285E-04
0.72253424E-04
0.55627435E-04
0.42862750E-04
0.32930406E-04
0.25149842E-04
0.19214320E-04
0.14694585E-04
0.11130328E-04
0.84090243E-05
0.63393336E-05
0.47308745E-05
0.35216153E-05
0.25975364E-05
0.19069715E-05
0.14033639E-05
0.10348170E-05
