atomic number =   79
effective nuclear charge =   79
electron count =   74
net charge =    5
basis set = approximate basis set limit (UGBS)      
exchange correlation functional = PW91PW91            
cutoff radius (picometer) =  300
number of shells =   50
prepared by = Thomas A. Manz      
prepared date = July 2010           
magnetization =    4
density in atomic units:
0.75136805E+05
0.27467136E+03
0.74640396E+02
0.42943481E+02
0.19707273E+02
0.78585258E+01
0.38838456E+01
0.24553463E+01
0.16638809E+01
0.11405538E+01
0.75948310E+00
0.49225798E+00
0.32522014E+00
0.21245840E+00
0.14013262E+00
0.92924163E-01
0.62319003E-01
0.43253869E-01
0.30331170E-01
0.21529200E-01
0.15580336E-01
0.11414039E-01
0.84812799E-02
0.64016683E-02
0.48586745E-02
0.37379505E-02
0.28932826E-02
0.22753857E-02
0.17918771E-02
0.14126872E-02
0.11231267E-02
0.89453661E-03
0.71686337E-03
0.57514024E-03
0.46177456E-03
0.37379842E-03
0.30308720E-03
0.24578715E-03
0.19932431E-03
0.16212832E-03
0.13266038E-03
0.10822816E-03
0.88534412E-04
0.72711031E-04
0.59614635E-04
0.49022274E-04
0.40316707E-04
0.33223077E-04
0.27398895E-04
0.22660370E-04
