atomic number =   90
effective nuclear charge =   90
electron count =   91
net charge =   -1
basis set = approximate basis set limit (UGBS)      
exchange correlation functional = PW91                
cutoff radius (picometer) =  300
number of shells =   50
prepared by = Thomas A. Manz      
prepared date = 2012                
magnetization =    3
density in atomic units:
0.11236699E+06
0.30487451E+03
0.10722991E+03
0.43964478E+02
0.15610804E+02
0.77812934E+01
0.49850464E+01
0.31799920E+01
0.19168189E+01
0.11721464E+01
0.75042289E+00
0.51804721E+00
0.39073995E+00
0.30381015E+00
0.24073368E+00
0.19067281E+00
0.15036657E+00
0.11949380E+00
0.94404459E-01
0.74507467E-01
0.59172820E-01
0.47248278E-01
0.38074668E-01
0.31069959E-01
0.25528844E-01
0.21287298E-01
0.17919553E-01
0.15346117E-01
0.13239408E-01
0.11496019E-01
0.10093112E-01
0.89139966E-02
0.79331081E-02
0.70849149E-02
0.63423975E-02
0.57123946E-02
0.51505105E-02
0.46449453E-02
0.41890852E-02
0.37813773E-02
0.34219963E-02
0.30890894E-02
0.27893167E-02
0.25206029E-02
0.22735072E-02
0.20518822E-02
0.18491970E-02
0.16659189E-02
0.14992113E-02
0.13498281E-02
