atomic number =    5
effective nuclear charge =    5
electron count =    5
net charge =    0
basis set = approximate basis set limit (UGBS)      
exchange correlation functional = PW91PW91            
cutoff radius (picometer) =  300
number of shells =   50
prepared by = Thomas A. Manz      
prepared date = April 2010          
magnetization =    1
density in atomic units:
0.33574997E+02
0.11470058E+02
0.42168298E+01
0.15600479E+01
0.61067563E+00
0.25671932E+00
0.14302714E+00
0.10678470E+00
0.91608718E-01
0.82722098E-01
0.74576817E-01
0.66207953E-01
0.58313489E-01
0.50458465E-01
0.43230150E-01
0.36566112E-01
0.30616784E-01
0.25682187E-01
0.21347975E-01
0.17672619E-01
0.14596268E-01
0.12025876E-01
0.99123800E-02
0.81584090E-02
0.67029372E-02
0.54980130E-02
0.45139319E-02
0.37235555E-02
0.30605632E-02
0.25135023E-02
0.20697196E-02
0.17030687E-02
0.14048028E-02
0.11581078E-02
0.95566502E-03
0.79126749E-03
0.65680832E-03
0.54509594E-03
0.45159573E-03
0.37544451E-03
0.31311525E-03
0.26064875E-03
0.21767763E-03
0.18223020E-03
0.15256819E-03
0.12809056E-03
0.10753968E-03
0.90400528E-04
0.76060358E-04
0.64161621E-04
