atomic number =   64
effective nuclear charge =   64
electron count =   64
net charge =    0
basis set = approximate basis set limit (UGBS)      
exchange correlation functional = PW91PW91            
cutoff radius (picometer) =  300
number of shells =   50
prepared by = Thomas A. Manz      
prepared date = July 2010           
magnetization =    6
density in atomic units:
0.38288844E+05
0.21938467E+03
0.56594238E+02
0.21578522E+02
0.15155775E+02
0.88319721E+01
0.45650015E+01
0.24759598E+01
0.14513769E+01
0.96176904E+00
0.68015939E+00
0.49727204E+00
0.37446752E+00
0.27874282E+00
0.20703401E+00
0.15197459E+00
0.11062662E+00
0.81667699E-01
0.60065802E-01
0.44552051E-01
0.33441219E-01
0.25515199E-01
0.19904867E-01
0.15824618E-01
0.12860339E-01
0.10649266E-01
0.90125138E-02
0.77824122E-02
0.67936704E-02
0.59977900E-02
0.53439308E-02
0.47874008E-02
0.43090987E-02
0.38846410E-02
0.35074346E-02
0.31699750E-02
0.28674207E-02
0.25899943E-02
0.23321339E-02
0.21002241E-02
0.18897497E-02
0.16946896E-02
0.15193952E-02
0.13606031E-02
0.12159492E-02
0.10860667E-02
0.96807932E-03
0.86164073E-03
0.76596579E-03
0.68084494E-03
