atomic number =    4
effective nuclear charge =    4
electron count =    5
net charge =   -1
basis set = approximate basis set limit (UGBS)      
exchange correlation functional = PW91                
cutoff radius (picometer) =  300
number of shells =   50
prepared by = Thomas A. Manz      
prepared date = 2011                
magnetization =    1
density in atomic units:
0.18905529E+02
0.80431442E+01
0.36189544E+01
0.16274471E+01
0.74469423E+00
0.32807872E+00
0.15418959E+00
0.83185069E-01
0.51042486E-01
0.37280496E-01
0.31042747E-01
0.27970478E-01
0.26176972E-01
0.24623299E-01
0.23104355E-01
0.21493914E-01
0.19814037E-01
0.18198341E-01
0.16570223E-01
0.15007862E-01
0.13534203E-01
0.12162252E-01
0.10915047E-01
0.97700208E-02
0.87307673E-02
0.77827871E-02
0.69399881E-02
0.61990260E-02
0.55212476E-02
0.49142987E-02
0.43765758E-02
0.38931370E-02
0.34647218E-02
0.30788050E-02
0.27357519E-02
0.24311570E-02
0.21627895E-02
0.19218227E-02
0.17026882E-02
0.15105898E-02
0.13395449E-02
0.11850133E-02
0.10495195E-02
0.92910300E-03
0.82186284E-03
0.72717137E-03
0.64267329E-03
0.56749856E-03
0.50101854E-03
0.44249138E-03
