atomic number =   46
effective nuclear charge =   46
electron count =   43
net charge =    3
basis set = approximate basis set limit (UGBS)      
exchange correlation functional = PW91PW91            
cutoff radius (picometer) =  300
number of shells =   50
prepared by = Thomas A. Manz      
prepared date = July 2010           
magnetization =    3
density in atomic units:
0.13138640E+05
0.12933380E+03
0.53305016E+02
0.22297281E+02
0.77810135E+01
0.32999392E+01
0.22436213E+01
0.17751096E+01
0.13359596E+01
0.95920545E+00
0.65018666E+00
0.42952543E+00
0.28889173E+00
0.19280353E+00
0.13117908E+00
0.90849705E-01
0.63558780E-01
0.46389263E-01
0.34059841E-01
0.25752565E-01
0.19611746E-01
0.15209859E-01
0.12048444E-01
0.95279925E-02
0.76954621E-02
0.61699669E-02
0.50520403E-02
0.41550514E-02
0.34258112E-02
0.28560630E-02
0.23883516E-02
0.20054965E-02
0.16906181E-02
0.14291416E-02
0.12174401E-02
0.10363171E-02
0.89043420E-03
0.76712848E-03
0.65935345E-03
0.57042280E-03
0.49290602E-03
0.42634181E-03
0.37048457E-03
0.32200929E-03
0.28047996E-03
0.24461356E-03
0.21347037E-03
0.18622894E-03
0.16278077E-03
0.14244774E-03
