atomic number =   81
effective nuclear charge =   81
electron count =   82
net charge =   -1
basis set = approximate basis set limit (UGBS)      
exchange correlation functional = PW91                
cutoff radius (picometer) =  300
number of shells =   50
prepared by = Thomas A. Manz      
prepared date = 2011                
magnetization =    2
density in atomic units:
0.81276578E+05
0.28007056E+03
0.80303337E+02
0.44505428E+02
0.18992443E+02
0.75033441E+01
0.39836776E+01
0.26893899E+01
0.18906889E+01
0.13282244E+01
0.91003430E+00
0.61597872E+00
0.42958102E+00
0.30039677E+00
0.21444808E+00
0.15546949E+00
0.11459550E+00
0.87330565E-01
0.67297749E-01
0.52650981E-01
0.41809663E-01
0.33604827E-01
0.27372183E-01
0.22519907E-01
0.18678464E-01
0.15610879E-01
0.13158576E-01
0.11212585E-01
0.95823277E-02
0.82269227E-02
0.71109631E-02
0.61681024E-02
0.53788857E-02
0.47020046E-02
0.41227653E-02
0.36304097E-02
0.32070652E-02
0.28358297E-02
0.25063732E-02
0.22212863E-02
0.19724772E-02
0.17491869E-02
0.15540363E-02
0.13819723E-02
0.12283399E-02
0.10930058E-02
0.97186666E-03
0.86400117E-03
0.76805719E-03
0.68338588E-03
