atomic number =   78
effective nuclear charge =   78
electron count =   75
net charge =    3
basis set = approximate basis set limit (UGBS)      
exchange correlation functional = PW91PW91            
cutoff radius (picometer) =  500
number of shells =  100
prepared by = Thomas A. Manz      
prepared date = July 2010           
magnetization =    3
density in atomic units:
0.49982600E+06
0.55648157E+03
0.11890175E+03
0.56778072E+02
0.34032318E+02
0.17855219E+02
0.87810946E+01
0.46213493E+01
0.29313707E+01
0.20668659E+01
0.15200437E+01
0.11385531E+01
0.83831024E+00
0.60719299E+00
0.44462785E+00
0.32653782E+00
0.23611045E+00
0.17263380E+00
0.12728073E+00
0.93461841E-01
0.69885612E-01
0.52848913E-01
0.40067270E-01
0.30660735E-01
0.23697818E-01
0.18446075E-01
0.14450631E-01
0.11472526E-01
0.91321236E-02
0.73407269E-02
0.59227147E-02
0.48296261E-02
0.39419727E-02
0.32389124E-02
0.26798160E-02
0.22112362E-02
0.18311266E-02
0.15219986E-02
0.12701551E-02
0.10576984E-02
0.88724314E-03
0.74103929E-03
0.61978563E-03
0.52398659E-03
0.44097615E-03
0.37084226E-03
0.31363967E-03
0.26501159E-03
0.22445247E-03
0.19011834E-03
0.16126099E-03
0.13668410E-03
0.11639872E-03
0.99319550E-04
0.84765357E-04
0.72332754E-04
0.61836028E-04
0.52855827E-04
0.45226472E-04
0.38898816E-04
0.33348031E-04
0.28676381E-04
0.24684714E-04
0.21243361E-04
0.18327757E-04
0.15819887E-04
0.13673649E-04
0.11816850E-04
0.10226715E-04
0.88074357E-05
0.76272941E-05
0.65986728E-05
0.57154070E-05
0.49624664E-05
0.42910578E-05
0.37124958E-05
0.32122864E-05
0.27589761E-05
0.23877574E-05
0.20672435E-05
0.17845636E-05
0.15416207E-05
0.13292469E-05
0.11480241E-05
0.99276065E-06
0.86031338E-06
0.74161431E-06
0.64178806E-06
0.55454507E-06
0.47834402E-06
0.41334954E-06
0.35848205E-06
0.30832544E-06
0.26644560E-06
0.23072074E-06
0.19918717E-06
0.17348091E-06
0.15153762E-06
0.13105793E-06
0.11402857E-06
