atomic number =   15
effective nuclear charge =   15
electron count =   17
net charge =   -2
basis set = approximate basis set limit (UGBS)      
exchange correlation functional = PW91PW91            
cutoff radius (picometer) =  300
number of shells =   50
prepared by = Thomas A. Manz      
prepared date = July 2010           
magnetization =    1
density in atomic units:
0.44064801E+03
0.27748991E+02
0.13521727E+02
0.77756681E+01
0.40067453E+01
0.18233465E+01
0.83020443E+00
0.41886973E+00
0.23772599E+00
0.16371302E+00
0.13126683E+00
0.11455977E+00
0.10358231E+00
0.93387000E-01
0.83562844E-01
0.73808201E-01
0.64484842E-01
0.56273263E-01
0.48700273E-01
0.41985199E-01
0.36143687E-01
0.31073060E-01
0.26741913E-01
0.23014536E-01
0.19792411E-01
0.17018968E-01
0.14650901E-01
0.12666214E-01
0.10923854E-01
0.94151329E-02
0.81316279E-02
0.70177424E-02
0.60664220E-02
0.52382671E-02
0.45221415E-02
0.39118766E-02
0.33866959E-02
0.29282668E-02
0.25254951E-02
0.21811093E-02
0.18858833E-02
0.16256464E-02
0.14028230E-02
0.12111708E-02
0.10440919E-02
0.90089452E-03
0.77627797E-03
0.66859421E-03
0.57557260E-03
0.49598812E-03
