atomic number =   56
effective nuclear charge =   56
electron count =   57
net charge =   -1
basis set = approximate basis set limit (UGBS)      
exchange correlation functional = PW91PW91            
cutoff radius (picometer) =  300
number of shells =   50
prepared by = Thomas A. Manz      
prepared date = July 2010           
magnetization =    1
density in atomic units:
0.24842551E+05
0.17865762E+03
0.61150238E+02
0.16786530E+02
0.90800676E+01
0.66328664E+01
0.42625422E+01
0.25150568E+01
0.14191638E+01
0.84212691E+00
0.54300493E+00
0.38686705E+00
0.30194086E+00
0.24168743E+00
0.19543165E+00
0.15670924E+00
0.12418597E+00
0.98510489E-01
0.77131763E-01
0.59965558E-01
0.46550885E-01
0.36099579E-01
0.28113268E-01
0.22037698E-01
0.17363872E-01
0.13850991E-01
0.11192506E-01
0.92437491E-02
0.77360724E-02
0.65719155E-02
0.56944676E-02
0.50077029E-02
0.44740033E-02
0.40429044E-02
0.36857896E-02
0.33969947E-02
0.31476843E-02
0.29278470E-02
0.27315628E-02
0.25551454E-02
0.23983603E-02
0.22499401E-02
0.21123055E-02
0.19851637E-02
0.18636215E-02
0.17502878E-02
0.16421450E-02
0.15401256E-02
0.14429638E-02
0.13519324E-02
