atomic number =   88
effective nuclear charge =   88
electron count =   87
net charge =    1
basis set = approximate basis set limit (UGBS)      
exchange correlation functional = PW91                
cutoff radius (picometer) =  300
number of shells =   50
prepared by = Thomas A. Manz      
prepared date = 2011                
magnetization =    1
density in atomic units:
0.10498016E+06
0.29898624E+03
0.10159968E+03
0.44977112E+02
0.16149927E+02
0.74878082E+01
0.47723780E+01
0.31620562E+01
0.19801943E+01
0.12317816E+01
0.77910733E+00
0.52017200E+00
0.37953290E+00
0.28820625E+00
0.22595356E+00
0.17886469E+00
0.14158066E+00
0.11295963E+00
0.89194655E-01
0.70002630E-01
0.54724578E-01
0.42605709E-01
0.33176623E-01
0.25814164E-01
0.20075159E-01
0.15639864E-01
0.12256356E-01
0.97258072E-02
0.77477177E-02
0.62232725E-02
0.50673843E-02
0.41692266E-02
0.34779531E-02
0.29313939E-02
0.24978116E-02
0.21546562E-02
0.18770591E-02
0.16463042E-02
0.14506114E-02
0.12872050E-02
0.11486134E-02
0.10266459E-02
0.92140230E-03
0.82930806E-03
0.74711011E-03
0.67450368E-03
0.60911354E-03
0.55037829E-03
0.49749861E-03
0.45016251E-03
