atomic number =   15
effective nuclear charge =   15
electron count =   18
net charge =   -3
basis set = approximate basis set limit (UGBS)      
exchange correlation functional = PW91PW91            
cutoff radius (picometer) =  300
number of shells =   50
prepared by = Thomas A. Manz      
prepared date = July 2010           
magnetization =    0
density in atomic units:
0.44056201E+03
0.27761835E+02
0.13522998E+02
0.77747984E+01
0.40065565E+01
0.18234445E+01
0.83004475E+00
0.41838810E+00
0.23712184E+00
0.16326329E+00
0.13119535E+00
0.11498202E+00
0.10448802E+00
0.94764359E-01
0.85363299E-01
0.75989336E-01
0.66994958E-01
0.59045434E-01
0.51682390E-01
0.45123160E-01
0.39377000E-01
0.34349825E-01
0.30013738E-01
0.26235593E-01
0.22926074E-01
0.20033183E-01
0.17522970E-01
0.15381996E-01
0.13468053E-01
0.11781061E-01
0.10318471E-01
0.90258615E-02
0.79017011E-02
0.69056763E-02
0.60295863E-02
0.52708876E-02
0.46075396E-02
0.40202229E-02
0.34969437E-02
0.30437848E-02
0.26503967E-02
0.22997523E-02
0.19964313E-02
0.17330484E-02
0.15013600E-02
0.13011473E-02
0.11256372E-02
0.97295555E-03
0.84032369E-03
0.72623516E-03
