atomic number =   78
effective nuclear charge =   78
electron count =   78
net charge =    0
basis set = approximate basis set limit (UGBS)      
exchange correlation functional = PW91PW91            
cutoff radius (picometer) =  400
number of shells =   75
prepared by = Thomas A. Manz      
prepared date = July 2010           
magnetization =    2
density in atomic units:
0.72179391E+05
0.39567905E+03
0.95642990E+02
0.53971245E+02
0.31331850E+02
0.14287866E+02
0.67200480E+01
0.37165787E+01
0.24156957E+01
0.17299532E+01
0.12768439E+01
0.94263315E+00
0.69243693E+00
0.51014435E+00
0.37704247E+00
0.27968067E+00
0.20868132E+00
0.15757015E+00
0.12086426E+00
0.94147637E-01
0.74005447E-01
0.58721982E-01
0.46762258E-01
0.37663952E-01
0.30470196E-01
0.24795230E-01
0.20314984E-01
0.16681133E-01
0.13737599E-01
0.11309326E-01
0.94241118E-02
0.78493189E-02
0.65180296E-02
0.54234257E-02
0.45388094E-02
0.38019328E-02
0.31824892E-02
0.26695540E-02
0.22495638E-02
0.18931221E-02
0.15917534E-02
0.13441356E-02
0.11358911E-02
0.96056558E-03
0.81354013E-03
0.68995857E-03
0.58534159E-03
0.49748574E-03
0.42192239E-03
0.35859871E-03
0.30484662E-03
0.25982564E-03
0.22117287E-03
0.18846834E-03
0.16100450E-03
0.13742645E-03
0.11722537E-03
0.10011519E-03
0.85617736E-04
0.73197698E-04
0.62527521E-04
0.53521733E-04
0.45807752E-04
0.39195591E-04
0.33495886E-04
0.28608682E-04
0.24468076E-04
0.20878770E-04
0.17819390E-04
0.15220810E-04
0.13024586E-04
0.11117422E-04
0.94672159E-05
0.80624332E-05
0.68690038E-05
