atomic number =   53
effective nuclear charge =   53
electron count =   48
net charge =    5
basis set = approximate basis set limit (UGBS)      
exchange correlation functional = PW91PW91            
cutoff radius (picometer) =  300
number of shells =   50
prepared by = Thomas A. Manz      
prepared date = July 2010           
magnetization =    0
density in atomic units:
0.20782076E+05
0.16214413E+03
0.61634506E+02
0.17909857E+02
0.75708971E+01
0.54600272E+01
0.40060692E+01
0.26773429E+01
0.16437119E+01
0.98254794E+00
0.57718259E+00
0.34295475E+00
0.21774150E+00
0.14138848E+00
0.95025837E-01
0.65152779E-01
0.45290388E-01
0.32450370E-01
0.23279762E-01
0.16788688E-01
0.12172529E-01
0.88475524E-02
0.64675384E-02
0.47400398E-02
0.34773038E-02
0.25561375E-02
0.18884892E-02
0.14115269E-02
0.10536555E-02
0.78851258E-03
0.59476803E-03
0.44973192E-03
0.34241113E-03
0.26110836E-03
0.19961933E-03
0.15351651E-03
0.11844846E-03
0.91276561E-04
0.70030168E-04
0.53815897E-04
0.41409465E-04
0.31627682E-04
0.24106990E-04
0.18316661E-04
0.13803114E-04
0.10357909E-04
0.77002733E-05
0.56744498E-05
0.41444227E-05
0.30098022E-05
