atomic number =   76
effective nuclear charge =   76
electron count =   68
net charge =    8
basis set = approximate basis set limit (UGBS)      
exchange correlation functional = PW91PW91            
cutoff radius (picometer) =  300
number of shells =   50
prepared by = Thomas A. Manz      
prepared date = July 2010           
magnetization =    0
density in atomic units:
0.66482492E+05
0.26595450E+03
0.67373947E+02
0.39554821E+02
0.20314602E+02
0.85797844E+01
0.40295057E+01
0.23189015E+01
0.14439665E+01
0.92495775E+00
0.57374328E+00
0.34196112E+00
0.20526855E+00
0.11902023E+00
0.68172216E-01
0.38283054E-01
0.21051487E-01
0.11825363E-01
0.65201796E-02
0.35784682E-02
0.19683840E-02
0.10847225E-02
0.60507871E-03
0.34125542E-03
0.19450812E-03
0.11244366E-03
0.66194443E-04
0.40044481E-04
0.24233546E-04
0.14632717E-04
0.88058441E-05
0.51394913E-05
0.27889059E-05
0.14379581E-05
0.56621008E-06
0.18237328E-06
0.56078839E-07
0.11850326E-06
0.24645901E-08
0.00000000E+00
0.00000000E+00
0.00000000E+00
0.00000000E+00
0.00000000E+00
0.00000000E+00
0.00000000E+00
0.00000000E+00
0.00000000E+00
0.00000000E+00
0.00000000E+00
