atomic number =   78
effective nuclear charge =   78
electron count =   74
net charge =    4
basis set = approximate basis set limit (UGBS)      
exchange correlation functional = PW91PW91            
cutoff radius (picometer) =  400
number of shells =   75
prepared by = Thomas A. Manz      
prepared date = July 2010           
magnetization =    4
density in atomic units:
0.72177898E+05
0.39570847E+03
0.95656219E+02
0.53943058E+02
0.31315897E+02
0.14294864E+02
0.67266073E+01
0.37038455E+01
0.23782187E+01
0.16704345E+01
0.12027700E+01
0.86055666E+00
0.60781687E+00
0.42771327E+00
0.29984540E+00
0.20964034E+00
0.14654915E+00
0.10331185E+00
0.73931769E-01
0.53763751E-01
0.39507747E-01
0.29372966E-01
0.21962592E-01
0.16691437E-01
0.12795952E-01
0.99169826E-02
0.77834832E-02
0.61459392E-02
0.48964513E-02
0.39084926E-02
0.31798480E-02
0.25901282E-02
0.21070826E-02
0.17233579E-02
0.14195807E-02
0.11714465E-02
0.96779549E-03
0.80067484E-03
0.66654989E-03
0.55450096E-03
0.46114821E-03
0.38540395E-03
0.32223473E-03
0.27002700E-03
0.22660353E-03
0.19084361E-03
0.16043437E-03
0.13571337E-03
0.11428773E-03
0.96749398E-04
0.81788283E-04
0.69635578E-04
0.59181766E-04
0.50443221E-04
0.43136894E-04
0.36901976E-04
0.31615753E-04
0.27123035E-04
0.23323051E-04
0.20070658E-04
0.17252516E-04
0.14872395E-04
0.12794561E-04
0.11027370E-04
0.94972083E-05
0.81569797E-05
0.70670408E-05
0.60610641E-05
0.52289538E-05
0.44941849E-05
0.38990274E-05
0.33965541E-05
0.29552598E-05
0.25786228E-05
0.22477677E-05
