atomic number =   42
effective nuclear charge =   42
electron count =   44
net charge =   -2
basis set = approximate basis set limit (UGBS)      
exchange correlation functional = PW91PW91            
cutoff radius (picometer) =  300
number of shells =   50
prepared by = Thomas A. Manz      
prepared date = July 2010           
magnetization =    6
density in atomic units:
0.97976396E+04
0.11713561E+03
0.43714462E+02
0.22814449E+02
0.94918938E+01
0.35678420E+01
0.17747592E+01
0.12496245E+01
0.98628193E+00
0.78341866E+00
0.59808213E+00
0.44094518E+00
0.32564208E+00
0.23683396E+00
0.17308456E+00
0.12696053E+00
0.93995929E-01
0.71723379E-01
0.55394623E-01
0.43600444E-01
0.35020176E-01
0.28639255E-01
0.23860443E-01
0.20173471E-01
0.17260822E-01
0.14925294E-01
0.13036976E-01
0.11513559E-01
0.10209346E-01
0.90956977E-02
0.81511503E-02
0.73266542E-02
0.66124452E-02
0.59773889E-02
0.54131388E-02
0.49159513E-02
0.44719311E-02
0.40678326E-02
0.36962938E-02
0.33628633E-02
0.30622415E-02
0.27830659E-02
0.25308465E-02
0.23017582E-02
0.20907985E-02
0.18996134E-02
0.17237301E-02
0.15629848E-02
0.14161495E-02
0.12833657E-02
