atomic number =   77
effective nuclear charge =   77
electron count =   75
net charge =    2
basis set = approximate basis set limit (UGBS)      
exchange correlation functional = PW91PW91            
cutoff radius (picometer) =  500
number of shells =  100
prepared by = Thomas A. Manz      
prepared date = July 2010           
magnetization =    3
density in atomic units:
0.47974000E+06
0.54546149E+03
0.11834137E+03
0.54387150E+02
0.33580372E+02
0.18133484E+02
0.90328226E+01
0.47039914E+01
0.29197156E+01
0.20329974E+01
0.14904695E+01
0.11257898E+01
0.83968365E+00
0.61768407E+00
0.46088728E+00
0.34397545E+00
0.25367963E+00
0.18902276E+00
0.14159133E+00
0.10596537E+00
0.80332711E-01
0.61788827E-01
0.47527019E-01
0.36753196E-01
0.28758613E-01
0.22604596E-01
0.17869685E-01
0.14269509E-01
0.11425550E-01
0.92137614E-02
0.75002629E-02
0.61013768E-02
0.50045177E-02
0.41246400E-02
0.34067556E-02
0.28199162E-02
0.23377954E-02
0.19435514E-02
0.16243206E-02
0.13595285E-02
0.11386321E-02
0.95748284E-03
0.80576591E-03
0.68123714E-03
0.57747599E-03
0.48795875E-03
0.41344983E-03
0.35254605E-03
0.29997871E-03
0.25562476E-03
0.21804332E-03
0.18599781E-03
0.15908461E-03
0.13639692E-03
0.11696753E-03
0.10034653E-03
0.86027234E-04
0.73862728E-04
0.63518019E-04
0.54654211E-04
0.47086545E-04
0.40555602E-04
0.34963137E-04
0.30141811E-04
0.25970872E-04
0.22449063E-04
0.19412108E-04
0.16744560E-04
0.14446509E-04
0.12448812E-04
0.10735693E-04
0.92585560E-05
0.79806568E-05
0.68850873E-05
0.59231766E-05
0.50942112E-05
0.43732784E-05
0.37414525E-05
0.31897850E-05
0.27158910E-05
0.23161417E-05
0.19669490E-05
0.16775534E-05
0.14353002E-05
0.12316564E-05
0.10559293E-05
0.90487140E-06
0.77507673E-06
0.66446711E-06
0.56732824E-06
0.48668102E-06
0.41609488E-06
0.35544016E-06
0.30434430E-06
0.26088756E-06
0.22373372E-06
0.19205244E-06
0.16491664E-06
0.14196866E-06
0.12132193E-06
