atomic number =   54
effective nuclear charge =   54
electron count =   52
net charge =    2
basis set = approximate basis set limit (UGBS)      
exchange correlation functional = PW91                
cutoff radius (picometer) =  300
number of shells =   50
prepared by = Thomas A. Manz      
prepared date = 2012                
magnetization =    2
density in atomic units:
0.22077730E+05
0.16756203E+03
0.61743622E+02
0.17417150E+02
0.80110950E+01
0.58977966E+01
0.41451521E+01
0.26464915E+01
0.15688483E+01
0.92935193E+00
0.56471241E+00
0.36652806E+00
0.26388833E+00
0.19985250E+00
0.15743527E+00
0.12579086E+00
0.10072853E+00
0.81290990E-01
0.64887263E-01
0.51380605E-01
0.40406134E-01
0.31526148E-01
0.24489326E-01
0.18903343E-01
0.14487617E-01
0.11036004E-01
0.83820168E-02
0.63887108E-02
0.48305169E-02
0.36367709E-02
0.27423715E-02
0.20611028E-02
0.15517442E-02
0.11646932E-02
0.87307795E-03
0.65666321E-03
0.49451063E-03
0.37138778E-03
0.27731975E-03
0.20748388E-03
0.15549465E-03
0.11572695E-03
0.86223568E-04
0.64245447E-04
0.47659574E-04
0.35376208E-04
0.26129277E-04
0.19251809E-04
0.14142652E-04
0.10398028E-04
