atomic number =   64
effective nuclear charge =   64
electron count =   62
net charge =    2
basis set = approximate basis set limit (UGBS)      
exchange correlation functional = PW91                
cutoff radius (picometer) =  300
number of shells =   50
prepared by = Thomas A. Manz      
prepared date = 2011                
magnetization =    6
density in atomic units:
0.38286008E+05
0.21925047E+03
0.56590885E+02
0.21585258E+02
0.15173057E+02
0.88526783E+01
0.45801668E+01
0.24759917E+01
0.14496436E+01
0.96006256E+00
0.68017143E+00
0.49762210E+00
0.37585688E+00
0.28010902E+00
0.20800631E+00
0.15168382E+00
0.10945995E+00
0.79403609E-01
0.56977507E-01
0.40614862E-01
0.28926734E-01
0.20577524E-01
0.14674309E-01
0.10482248E-01
0.74761836E-02
0.53551542E-02
0.38449694E-02
0.28054749E-02
0.20443860E-02
0.14976257E-02
0.11102519E-02
0.83118334E-03
0.63075614E-03
0.48353837E-03
0.37577248E-03
0.29711233E-03
0.23827926E-03
0.19345501E-03
0.15828601E-03
0.13139033E-03
0.11047325E-03
0.93416376E-04
0.79827281E-04
0.68718444E-04
0.59576247E-04
0.51975185E-04
0.45525307E-04
0.40051404E-04
0.35316101E-04
0.31318054E-04
