atomic number =   77
effective nuclear charge =   77
electron count =   78
net charge =   -1
basis set = approximate basis set limit (UGBS)      
exchange correlation functional = PW91PW91            
cutoff radius (picometer) =  300
number of shells =   50
prepared by = Thomas A. Manz      
prepared date = July 2010           
magnetization =    2
density in atomic units:
0.69296539E+05
0.26884567E+03
0.69623596E+02
0.40875328E+02
0.20187326E+02
0.83069019E+01
0.39722362E+01
0.24253914E+01
0.16437249E+01
0.11633091E+01
0.81775969E+00
0.56977463E+00
0.40776807E+00
0.29215324E+00
0.21301828E+00
0.15727291E+00
0.11798456E+00
0.91235593E-01
0.71355984E-01
0.56502856E-01
0.45417197E-01
0.36869202E-01
0.30243810E-01
0.25036478E-01
0.20804904E-01
0.17396314E-01
0.14602012E-01
0.12360412E-01
0.10456583E-01
0.88500734E-02
0.75213625E-02
0.63943961E-02
0.54529109E-02
0.46490738E-02
0.39651175E-02
0.33935853E-02
0.29081546E-02
0.24904246E-02
0.21287377E-02
0.18229751E-02
0.15643688E-02
0.13385777E-02
0.11470353E-02
0.98393997E-03
0.84289815E-03
0.72302303E-03
0.61948522E-03
0.53072110E-03
0.45453414E-03
0.38980634E-03
