atomic number =   78
effective nuclear charge =   78
electron count =   73
net charge =    5
basis set = approximate basis set limit (UGBS)      
exchange correlation functional = PW91PW91            
cutoff radius (picometer) =  400
number of shells =   75
prepared by = Thomas A. Manz      
prepared date = July 2010           
magnetization =    5
density in atomic units:
0.72179141E+05
0.39570221E+03
0.95650108E+02
0.53932926E+02
0.31308043E+02
0.14299347E+02
0.67303896E+01
0.36966746E+01
0.23581314E+01
0.16392237E+01
0.11670417E+01
0.82397997E+00
0.57256025E+00
0.39595971E+00
0.27243754E+00
0.18692166E+00
0.12814116E+00
0.88604130E-01
0.62296703E-01
0.44505652E-01
0.32240476E-01
0.23626197E-01
0.17463008E-01
0.13090697E-01
0.99383695E-02
0.76286220E-02
0.59216064E-02
0.46518529E-02
0.36657087E-02
0.29131039E-02
0.23478363E-02
0.19014290E-02
0.15388601E-02
0.12485717E-02
0.10220006E-02
0.83850679E-03
0.68717374E-03
0.56549045E-03
0.46754043E-03
0.38602331E-03
0.31836526E-03
0.26389482E-03
0.21911740E-03
0.18199117E-03
0.15151194E-03
0.12626391E-03
0.10542769E-03
0.88091605E-04
0.73592790E-04
0.61604092E-04
0.51676165E-04
0.43468073E-04
0.36580350E-04
0.30842566E-04
0.26128813E-04
0.22118000E-04
0.18716264E-04
0.15864518E-04
0.13478575E-04
0.11460973E-04
0.97473667E-05
0.82957386E-05
0.70558121E-05
0.60034204E-05
0.51106613E-05
0.43540940E-05
0.37039376E-05
0.31438087E-05
0.26662326E-05
0.22699710E-05
0.19313509E-05
0.16496792E-05
0.14111229E-05
0.12100637E-05
0.10384177E-05
