atomic number =   20
effective nuclear charge =   20
electron count =   18
net charge =    2
basis set = approximate basis set limit (UGBS)      
exchange correlation functional = PW91PW91            
cutoff radius (picometer) =  300
number of shells =   50
prepared by = Thomas A. Manz      
prepared date = July 2010           
magnetization =    0
density in atomic units:
0.96577490E+03
0.49092510E+02
0.21753748E+02
0.78514776E+01
0.27699368E+01
0.12650799E+01
0.91998661E+00
0.78786105E+00
0.65853989E+00
0.52551121E+00
0.39717761E+00
0.28807738E+00
0.20813240E+00
0.14648311E+00
0.10216802E+00
0.70194870E-01
0.47592975E-01
0.32674313E-01
0.22143301E-01
0.14947123E-01
0.10086505E-01
0.67952746E-02
0.45933742E-02
0.31048157E-02
0.20932825E-02
0.14087701E-02
0.94920723E-03
0.64563123E-03
0.43556798E-03
0.29266695E-03
0.19741280E-03
0.13269161E-03
0.89458445E-04
0.60107519E-04
0.40307645E-04
0.27182376E-04
0.18366414E-04
0.12355817E-04
0.82444385E-05
0.55348692E-05
0.37242301E-05
0.24763935E-05
0.16516626E-05
0.11055926E-05
0.73762538E-06
0.49311024E-06
0.32854987E-06
0.21826786E-06
0.14497780E-06
0.96595109E-07
