atomic number =   53
effective nuclear charge =   53
electron count =   51
net charge =    2
basis set = approximate basis set limit (UGBS)      
exchange correlation functional = PW91PW91            
cutoff radius (picometer) =  300
number of shells =   50
prepared by = Thomas A. Manz      
prepared date = July 2010           
magnetization =    3
density in atomic units:
0.20779498E+05
0.16215274E+03
0.61667622E+02
0.17916653E+02
0.75977197E+01
0.54837871E+01
0.40111547E+01
0.26708579E+01
0.16373942E+01
0.98471224E+00
0.59125823E+00
0.36811182E+00
0.25055298E+00
0.17884730E+00
0.13420209E+00
0.10370722E+00
0.81579901E-01
0.65616220E-01
0.52790806E-01
0.42536892E-01
0.34312259E-01
0.27655004E-01
0.22322230E-01
0.18004853E-01
0.14498412E-01
0.11662596E-01
0.93933772E-02
0.76107420E-02
0.61461120E-02
0.49610641E-02
0.40194592E-02
0.32561573E-02
0.26469172E-02
0.21510380E-02
0.17499054E-02
0.14295394E-02
0.11708463E-02
0.95870503E-03
0.78336732E-03
0.64216345E-03
0.52794750E-03
0.43286177E-03
0.35583839E-03
0.29304405E-03
0.24117336E-03
0.19891838E-03
0.16398374E-03
0.13526379E-03
0.11161198E-03
0.92280075E-04
