atomic number =   63
effective nuclear charge =   63
electron count =   64
net charge =   -1
basis set = approximate basis set limit (UGBS)      
exchange correlation functional = PW91                
cutoff radius (picometer) =  300
number of shells =   50
prepared by = Thomas A. Manz      
prepared date = 2011                
magnetization =    8
density in atomic units:
0.36386176E+05
0.21462770E+03
0.56961563E+02
0.20451891E+02
0.14384859E+02
0.86688328E+01
0.45694871E+01
0.24801502E+01
0.14412975E+01
0.94422954E+00
0.66714835E+00
0.49039385E+00
0.37264019E+00
0.28063720E+00
0.21055777E+00
0.15603988E+00
0.11447149E+00
0.84950343E-01
0.62658764E-01
0.46409838E-01
0.34720823E-01
0.26299944E-01
0.20305360E-01
0.15980830E-01
0.12835719E-01
0.10537922E-01
0.88585131E-02
0.76328726E-02
0.66801161E-02
0.59356191E-02
0.53496696E-02
0.48675230E-02
0.44655143E-02
0.41205673E-02
0.38142563E-02
0.35446309E-02
0.33014556E-02
0.30763077E-02
0.28645606E-02
0.26699337E-02
0.24895682E-02
0.23174889E-02
0.21576989E-02
0.20083163E-02
0.18670025E-02
0.17353359E-02
0.16108089E-02
0.14938609E-02
0.13840888E-02
0.12821411E-02
