atomic number =   47
effective nuclear charge =   47
electron count =   48
net charge =   -1
basis set = approximate basis set limit (UGBS)      
exchange correlation functional = PW91PW91            
cutoff radius (picometer) =  400
number of shells =   75
prepared by = Thomas A. Manz      
prepared date = July 2010           
magnetization =    0
density in atomic units:
0.14082804E+05
0.17726270E+03
0.69370438E+02
0.35009399E+02
0.13460891E+02
0.52461753E+01
0.31549330E+01
0.24979630E+01
0.20262599E+01
0.15717678E+01
0.11769532E+01
0.85846198E+00
0.61679935E+00
0.44411838E+00
0.32113886E+00
0.23382641E+00
0.17172754E+00
0.12811691E+00
0.97610474E-01
0.75772688E-01
0.59777133E-01
0.47767423E-01
0.38559206E-01
0.31526212E-01
0.26061667E-01
0.21739887E-01
0.18291244E-01
0.15523488E-01
0.13204391E-01
0.11298832E-01
0.97608538E-02
0.84603429E-02
0.73305839E-02
0.63642459E-02
0.55596498E-02
0.48653926E-02
0.42554592E-02
0.37326368E-02
0.32843589E-02
0.28867018E-02
0.25346817E-02
0.22324463E-02
0.19672324E-02
0.17329569E-02
0.15280029E-02
0.13472732E-02
0.11886072E-02
0.10481941E-02
0.92337199E-03
0.81377855E-03
0.71747584E-03
0.63298026E-03
0.55789360E-03
0.49179274E-03
0.43428224E-03
0.38302649E-03
0.33749241E-03
0.29761216E-03
0.26267118E-03
0.23172938E-03
0.20435006E-03
0.18043732E-03
0.15933509E-03
0.14064931E-03
0.12413425E-03
0.10959143E-03
0.96862961E-04
0.85572814E-04
0.75573989E-04
0.66845532E-04
0.59202874E-04
0.52341467E-04
0.46247260E-04
0.40896750E-04
0.36223577E-04
