atomic number =   22
effective nuclear charge =   22
electron count =   19
net charge =    3
basis set = approximate basis set limit (UGBS)      
exchange correlation functional = PW91                
cutoff radius (picometer) =  400
number of shells =   75
prepared by = Thomas A. Manz      
prepared date = 2011                
magnetization =    1
density in atomic units:
0.12782352E+04
0.72886528E+02
0.32018101E+02
0.12017260E+02
0.43000960E+01
0.20874715E+01
0.15832324E+01
0.13326924E+01
0.10874972E+01
0.83734661E+00
0.62384450E+00
0.44949555E+00
0.31481010E+00
0.21827993E+00
0.14959730E+00
0.10162354E+00
0.68261914E-01
0.45702137E-01
0.30814357E-01
0.20797914E-01
0.14181444E-01
0.96534109E-02
0.66127391E-02
0.45186537E-02
0.31484650E-02
0.22071020E-02
0.15489940E-02
0.11262989E-02
0.79891609E-03
0.58938656E-03
0.43215766E-03
0.32505725E-03
0.24578720E-03
0.18438832E-03
0.14167275E-03
0.11006491E-03
0.84847394E-04
0.67128065E-04
0.53206142E-04
0.42205182E-04
0.33478227E-04
0.26842146E-04
0.21836273E-04
0.17652257E-04
0.14455174E-04
0.11720848E-04
0.97182283E-05
0.78318253E-05
0.64654701E-05
0.53054905E-05
0.44618455E-05
0.37005868E-05
0.31047916E-05
0.25654235E-05
0.21379919E-05
0.17712719E-05
0.14735695E-05
0.12243829E-05
0.10225601E-05
0.84513425E-06
0.68813154E-06
0.56435323E-06
0.46735371E-06
0.38113731E-06
0.30789343E-06
0.24809489E-06
0.19712007E-06
0.16041774E-06
0.12866505E-06
0.10373233E-06
0.83516021E-07
0.67052312E-07
0.53682374E-07
0.42747786E-07
0.34146957E-07
