atomic number =   25
effective nuclear charge =   25
electron count =   22
net charge =    3
basis set = approximate basis set limit (UGBS)      
exchange correlation functional = PW91PW91            
cutoff radius (picometer) =  300
number of shells =   50
prepared by = Thomas A. Manz      
prepared date = July 2010           
magnetization =    4
density in atomic units:
0.18831454E+04
0.73476364E+02
0.22363705E+02
0.66817107E+01
0.36665053E+01
0.28200738E+01
0.21251969E+01
0.14989685E+01
0.99519914E+00
0.64002490E+00
0.39993495E+00
0.24427027E+00
0.15412661E+00
0.96540935E-01
0.60933389E-01
0.38403213E-01
0.24388283E-01
0.15930533E-01
0.10477163E-01
0.68947999E-02
0.46394570E-02
0.31449315E-02
0.21559512E-02
0.15131659E-02
0.10616239E-02
0.76272845E-03
0.54886960E-03
0.40440570E-03
0.29838650E-03
0.21978153E-03
0.16380829E-03
0.12220077E-03
0.91780370E-04
0.68867936E-04
0.51490795E-04
0.38884300E-04
0.29264185E-04
0.21950080E-04
0.16384909E-04
0.12212946E-04
0.92269975E-05
0.69832445E-05
0.52699802E-05
0.39558718E-05
0.29520343E-05
0.21920998E-05
0.16152316E-05
0.11875477E-05
0.86591371E-06
0.63120626E-06
