atomic number =   40
effective nuclear charge =   40
electron count =   37
net charge =    3
basis set = approximate basis set limit (UGBS)      
exchange correlation functional = PW91                
cutoff radius (picometer) =  500
number of shells =  100
prepared by = Thomas A. Manz      
prepared date = 2011                
magnetization =    1
density in atomic units:
0.55755301E+05
0.25267383E+03
0.53996414E+02
0.30866377E+02
0.17483999E+02
0.91306009E+01
0.44100018E+01
0.21757109E+01
0.13097870E+01
0.94465446E+00
0.75172222E+00
0.62169665E+00
0.50605059E+00
0.40145755E+00
0.31655496E+00
0.24556613E+00
0.18560648E+00
0.13953859E+00
0.10395370E+00
0.76358788E-01
0.56173917E-01
0.41589681E-01
0.30524187E-01
0.22371296E-01
0.16542122E-01
0.12242410E-01
0.90944488E-02
0.68230419E-02
0.51303064E-02
0.38883544E-02
0.29911164E-02
0.22925760E-02
0.17848879E-02
0.14011496E-02
0.11039613E-02
0.87762158E-03
0.70120121E-03
0.56430278E-03
0.45923400E-03
0.37680450E-03
0.30934985E-03
0.25753293E-03
0.21528637E-03
0.18069395E-03
0.15322378E-03
0.12959763E-03
0.10993268E-03
0.94728442E-04
0.81565900E-04
0.70435897E-04
0.60845407E-04
0.52688792E-04
0.45775971E-04
0.39922990E-04
0.34794251E-04
0.30362346E-04
0.26448792E-04
0.23031811E-04
0.20106037E-04
0.17456972E-04
0.15234890E-04
0.13258422E-04
0.11511072E-04
0.99783974E-05
0.86277450E-05
0.74725567E-05
0.64818691E-05
0.56085232E-05
0.48229372E-05
0.41693829E-05
0.35751707E-05
0.30592673E-05
0.26153630E-05
0.22338027E-05
0.18881059E-05
0.15992644E-05
0.13514980E-05
0.11460066E-05
0.96668953E-06
0.81237124E-06
0.68549537E-06
0.56974926E-06
0.47627469E-06
0.39695402E-06
0.33105030E-06
0.27563354E-06
0.22942409E-06
0.18995789E-06
0.15748925E-06
0.13036633E-06
0.10776512E-06
0.88667520E-07
0.73041747E-07
0.60092781E-07
0.49222471E-07
0.40370718E-07
0.33191611E-07
0.27181059E-07
0.22082887E-07
0.18138541E-07
