atomic number =   75
effective nuclear charge =   75
electron count =   75
net charge =    0
basis set = approximate basis set limit (UGBS)      
exchange correlation functional = PW91PW91            
cutoff radius (picometer) =  300
number of shells =   50
prepared by = Thomas A. Manz      
prepared date = July 2010           
magnetization =    5
density in atomic units:
0.63743113E+05
0.26266983E+03
0.65307854E+02
0.38274166E+02
0.20351124E+02
0.87688885E+01
0.41256056E+01
0.24057918E+01
0.15713351E+01
0.10917797E+01
0.75987267E+00
0.52576530E+00
0.37353846E+00
0.26521072E+00
0.19154139E+00
0.14016820E+00
0.10421586E+00
0.80120482E-01
0.62376760E-01
0.49365051E-01
0.39673824E-01
0.32254927E-01
0.26525702E-01
0.21970030E-01
0.18276161E-01
0.15252586E-01
0.12776006E-01
0.10769368E-01
0.90583181E-02
0.76172231E-02
0.64216098E-02
0.54097148E-02
0.45665628E-02
0.38506757E-02
0.32473688E-02
0.27458081E-02
0.23251562E-02
0.19671186E-02
0.16602690E-02
0.14043869E-02
0.11902711E-02
0.10060051E-02
0.85188693E-03
0.72222773E-03
0.61171129E-03
0.51894004E-03
0.43984875E-03
0.37285738E-03
0.31611847E-03
0.26843802E-03
