atomic number =   95
effective nuclear charge =   95
electron count =   95
net charge =    0
basis set = approximate basis set limit (UGBS)      
exchange correlation functional = PW91PW91            
cutoff radius (picometer) =  300
number of shells =   50
prepared by = Thomas A. Manz      
prepared date = July 2010           
magnetization =    7
density in atomic units:
0.13191948E+06
0.32295087E+03
0.11848168E+03
0.40316944E+02
0.15065311E+02
0.88054790E+01
0.56392527E+01
0.35055430E+01
0.21411550E+01
0.13778569E+01
0.93426591E+00
0.66418785E+00
0.49648139E+00
0.37191486E+00
0.27955478E+00
0.20844510E+00
0.15422243E+00
0.11546410E+00
0.85897796E-01
0.64065240E-01
0.48134476E-01
0.36478516E-01
0.28049055E-01
0.21875527E-01
0.17312946E-01
0.13931470E-01
0.11422578E-01
0.95687425E-02
0.81121046E-02
0.69648516E-02
0.60596764E-02
0.53168801E-02
0.47047958E-02
0.41820714E-02
0.37316196E-02
0.33439053E-02
0.30035323E-02
0.26981256E-02
0.24204259E-02
0.21736855E-02
0.19532428E-02
0.17504669E-02
0.15691419E-02
0.14060953E-02
0.12577490E-02
0.11249692E-02
0.10044577E-02
0.89582428E-03
0.79810416E-03
0.71106490E-03
