atomic number =   76
effective nuclear charge =   76
electron count =   78
net charge =   -2
basis set = approximate basis set limit (UGBS)      
exchange correlation functional = PW91PW91            
cutoff radius (picometer) =  300
number of shells =   50
prepared by = Thomas A. Manz      
prepared date = July 2010           
magnetization =    2
density in atomic units:
0.66481203E+05
0.26583563E+03
0.67352478E+02
0.39636307E+02
0.20315201E+02
0.85366602E+01
0.40336533E+01
0.24018245E+01
0.16017894E+01
0.11268206E+01
0.79378569E+00
0.55399317E+00
0.39751825E+00
0.28593007E+00
0.20899791E+00
0.15433870E+00
0.11650664E+00
0.90565391E-01
0.71744807E-01
0.57262994E-01
0.46827074E-01
0.38658239E-01
0.32183986E-01
0.27293799E-01
0.23095470E-01
0.19863172E-01
0.17042182E-01
0.14805602E-01
0.12864899E-01
0.11146249E-01
0.97162118E-02
0.84697613E-02
0.74105272E-02
0.64812261E-02
0.56548351E-02
0.49641579E-02
0.43474985E-02
0.38002590E-02
0.33190588E-02
0.28970814E-02
0.25385583E-02
0.22147109E-02
0.19311589E-02
0.16864574E-02
0.14680348E-02
0.12794492E-02
0.11129918E-02
0.96845621E-03
0.84147125E-03
0.73225121E-03
