atomic number =   58
effective nuclear charge =   58
electron count =   53
net charge =    5
basis set = approximate basis set limit (UGBS)      
exchange correlation functional = PW91                
cutoff radius (picometer) =  300
number of shells =   50
prepared by = Thomas A. Manz      
prepared date = 2011                
magnetization =    1
density in atomic units:
0.27840861E+05
0.18977289E+03
0.59749268E+02
0.16724205E+02
0.10315334E+02
0.71504593E+01
0.41910462E+01
0.23168800E+01
0.12789291E+01
0.78098345E+00
0.53061694E+00
0.39019388E+00
0.30183437E+00
0.23142022E+00
0.17515954E+00
0.12924875E+00
0.93018144E-01
0.66771396E-01
0.46859529E-01
0.32463931E-01
0.22317410E-01
0.15226713E-01
0.10374518E-01
0.70414683E-02
0.47537573E-02
0.31968451E-02
0.21499719E-02
0.14593950E-02
0.98349608E-03
0.66146423E-03
0.44790754E-03
0.30346445E-03
0.20725638E-03
0.14195428E-03
0.97787430E-04
0.68205969E-04
0.48015907E-04
0.33990826E-04
0.24079774E-04
0.17199236E-04
0.12369119E-04
0.88710840E-05
0.63435095E-05
0.45153697E-05
0.31848058E-05
0.22451195E-05
0.16422598E-05
0.12205045E-05
0.91436243E-06
0.69401824E-06
