atomic number =   84
effective nuclear charge =   84
electron count =   85
net charge =   -1
basis set = approximate basis set limit (UGBS)      
exchange correlation functional = PW91                
cutoff radius (picometer) =  300
number of shells =   50
prepared by = Thomas A. Manz      
prepared date = 2012                
magnetization =    1
density in atomic units:
0.91016125E+05
0.28805429E+03
0.89403244E+02
0.45599731E+02
0.17706106E+02
0.72532368E+01
0.42712989E+01
0.29579449E+01
0.20122523E+01
0.13408638E+01
0.87169117E+00
0.56711644E+00
0.38858739E+00
0.27271831E+00
0.19939487E+00
0.15059695E+00
0.11698977E+00
0.94163053E-01
0.76732524E-01
0.63276827E-01
0.52667100E-01
0.44079293E-01
0.37103787E-01
0.31319510E-01
0.26461216E-01
0.22376340E-01
0.18957473E-01
0.16142679E-01
0.13712968E-01
0.11643396E-01
0.99113695E-02
0.84324144E-02
0.71892431E-02
0.61241700E-02
0.52175992E-02
0.44570193E-02
0.38123166E-02
0.32578858E-02
0.27778931E-02
0.23732828E-02
0.20312811E-02
0.17337564E-02
0.14822329E-02
0.12685332E-02
0.10843545E-02
0.92819118E-03
0.79365488E-03
0.67853642E-03
0.58001280E-03
0.49643422E-03
