atomic number =   78
effective nuclear charge =   78
electron count =   75
net charge =    3
basis set = approximate basis set limit (UGBS)      
exchange correlation functional = PW91PW91            
cutoff radius (picometer) =  400
number of shells =   75
prepared by = Thomas A. Manz      
prepared date = July 2010           
magnetization =    3
density in atomic units:
0.72178266E+05
0.39561182E+03
0.95613281E+02
0.53972393E+02
0.31327274E+02
0.14291383E+02
0.67205596E+01
0.37078047E+01
0.23961418E+01
0.16961688E+01
0.12370210E+01
0.89819133E+00
0.64347810E+00
0.46029466E+00
0.32821554E+00
0.23391584E+00
0.16654995E+00
0.11936941E+00
0.86816281E-01
0.63785553E-01
0.47527034E-01
0.35628337E-01
0.26941415E-01
0.20497832E-01
0.15820410E-01
0.12303117E-01
0.96239299E-02
0.76588606E-02
0.60525457E-02
0.48571699E-02
0.39184201E-02
0.31886911E-02
0.25938612E-02
0.21065460E-02
0.17291710E-02
0.14239877E-02
0.11685230E-02
0.96671132E-03
0.80216606E-03
0.66467351E-03
0.55005273E-03
0.45763238E-03
0.38218757E-03
0.31868278E-03
0.26681632E-03
0.22306194E-03
0.18771901E-03
0.15705868E-03
0.13210865E-03
0.11091847E-03
0.93697505E-04
0.78926314E-04
0.66699264E-04
0.56399786E-04
0.47944592E-04
0.40714433E-04
0.34548833E-04
0.29399856E-04
0.25063593E-04
0.21357546E-04
0.18238565E-04
0.15582476E-04
0.13350469E-04
0.11417771E-04
0.97741831E-05
0.83924424E-05
0.71494123E-05
0.61450846E-05
0.52584610E-05
0.45208012E-05
0.38825692E-05
0.33146771E-05
0.28347556E-05
0.24200071E-05
0.20712523E-05
