atomic number =   72
effective nuclear charge =   72
electron count =   68
net charge =    4
basis set = approximate basis set limit (UGBS)      
exchange correlation functional = PW91                
cutoff radius (picometer) =  300
number of shells =   50
prepared by = Thomas A. Manz      
prepared date = 2012                
magnetization =    0
density in atomic units:
0.55946613E+05
0.25243811E+03
0.60422569E+02
0.33726738E+02
0.19927345E+02
0.93298178E+01
0.44312677E+01
0.24752798E+01
0.15409884E+01
0.10377580E+01
0.70599490E+00
0.47525677E+00
0.32461616E+00
0.21675007E+00
0.14352675E+00
0.93398049E-01
0.59737615E-01
0.38692616E-01
0.24641009E-01
0.15590707E-01
0.98435860E-02
0.61921030E-02
0.39046023E-02
0.24589864E-02
0.15421986E-02
0.96439430E-03
0.60326647E-03
0.38120986E-03
0.23817804E-03
0.14774187E-03
0.91766851E-04
0.56470984E-04
0.34636309E-04
0.20958030E-04
0.12529292E-04
0.74675158E-05
0.44100916E-05
0.25837212E-05
0.14820411E-05
0.85008861E-06
0.48756925E-06
0.26901338E-06
0.15883347E-06
0.91702340E-07
0.64357671E-07
0.42075104E-07
0.25932168E-07
0.16169976E-07
0.12712616E-07
0.10126614E-07
