atomic number =   78
effective nuclear charge =   78
electron count =   72
net charge =    6
basis set = approximate basis set limit (UGBS)      
exchange correlation functional = PW91PW91            
cutoff radius (picometer) =  400
number of shells =   75
prepared by = Thomas A. Manz      
prepared date = July 2010           
magnetization =    4
density in atomic units:
0.72180430E+05
0.39570715E+03
0.95649765E+02
0.53915344E+02
0.31297018E+02
0.14304016E+02
0.67342658E+01
0.36869419E+01
0.23324006E+01
0.16009011E+01
0.11235486E+01
0.78026855E+00
0.53172415E+00
0.36017635E+00
0.24240160E+00
0.16263959E+00
0.10898419E+00
0.73717639E-01
0.50818067E-01
0.35640929E-01
0.25448024E-01
0.18405579E-01
0.13474255E-01
0.10002807E-01
0.75511029E-02
0.57701995E-02
0.44587534E-02
0.35029866E-02
0.27521842E-02
0.21908018E-02
0.17636986E-02
0.14303986E-02
0.11601481E-02
0.94208383E-03
0.77255280E-03
0.63532026E-03
0.52137382E-03
0.43029184E-03
0.35652012E-03
0.29492148E-03
0.24366826E-03
0.20234656E-03
0.16841934E-03
0.14013154E-03
0.11694429E-03
0.97598648E-04
0.81733604E-04
0.68335823E-04
0.57230602E-04
0.47985501E-04
0.40391387E-04
0.34032542E-04
0.28724549E-04
0.24278594E-04
0.20628140E-04
0.17495497E-04
0.14826995E-04
0.12591958E-04
0.10726762E-04
0.91318961E-05
0.77857158E-05
0.66237044E-05
0.56408812E-05
0.48035863E-05
0.40991490E-05
0.34929894E-05
0.29692483E-05
0.25234665E-05
0.21413532E-05
0.18234913E-05
0.15516275E-05
0.13229858E-05
0.11313103E-05
0.96692600E-06
0.82886453E-06
