atomic number =   76
effective nuclear charge =   76
electron count =   77
net charge =   -1
basis set = approximate basis set limit (UGBS)      
exchange correlation functional = PW91PW91            
cutoff radius (picometer) =  300
number of shells =   50
prepared by = Thomas A. Manz      
prepared date = July 2010           
magnetization =    3
density in atomic units:
0.66482602E+05
0.26582581E+03
0.67360626E+02
0.39632553E+02
0.20313568E+02
0.85394239E+01
0.40372672E+01
0.24046934E+01
0.16017163E+01
0.11252052E+01
0.78986144E+00
0.54985631E+00
0.39329758E+00
0.28167292E+00
0.20513162E+00
0.15112662E+00
0.11342528E+00
0.87756880E-01
0.68908177E-01
0.54693535E-01
0.44241421E-01
0.36137264E-01
0.29799964E-01
0.24885274E-01
0.20803867E-01
0.17562706E-01
0.14841736E-01
0.12665072E-01
0.10800723E-01
0.92009660E-02
0.78755775E-02
0.67417054E-02
0.57898406E-02
0.49707387E-02
0.42647328E-02
0.36756005E-02
0.31678190E-02
0.27273516E-02
0.23447978E-02
0.20181946E-02
0.17420108E-02
0.14986265E-02
0.12904392E-02
0.11126470E-02
0.95756020E-03
0.82527258E-03
0.71033830E-03
0.61148708E-03
0.52607356E-03
0.45327068E-03
