atomic number =   45
effective nuclear charge =   45
electron count =   42
net charge =    3
basis set = approximate basis set limit (UGBS)      
exchange correlation functional = PW91PW91            
cutoff radius (picometer) =  300
number of shells =   50
prepared by = Thomas A. Manz      
prepared date = July 2010           
magnetization =    4
density in atomic units:
0.12237274E+05
0.12595127E+03
0.51186222E+02
0.22687582E+02
0.81811495E+01
0.32792149E+01
0.20952151E+01
0.16569611E+01
0.12904618E+01
0.95879412E+00
0.67602915E+00
0.45836651E+00
0.31379193E+00
0.21146867E+00
0.14297064E+00
0.96493773E-01
0.65505542E-01
0.45680068E-01
0.32057866E-01
0.22641355E-01
0.16291359E-01
0.11841621E-01
0.87168450E-02
0.65347753E-02
0.49163415E-02
0.37635765E-02
0.28936143E-02
0.22661465E-02
0.17783366E-02
0.13958593E-02
0.11067204E-02
0.87944244E-03
0.70401968E-03
0.56454609E-03
0.45266550E-03
0.36675492E-03
0.29728893E-03
0.24104540E-03
0.19557783E-03
0.15904670E-03
0.13035015E-03
0.10644039E-03
0.87072884E-04
0.71545481E-04
0.58647543E-04
0.48235888E-04
0.39659419E-04
0.32694439E-04
0.26938593E-04
0.22273573E-04
