atomic number =   42
effective nuclear charge =   42
electron count =   45
net charge =   -3
basis set = approximate basis set limit (UGBS)      
exchange correlation functional = PW91PW91            
cutoff radius (picometer) =  300
number of shells =   50
prepared by = Thomas A. Manz      
prepared date = July 2010           
magnetization =    7
density in atomic units:
0.97975498E+04
0.11712665E+03
0.43714172E+02
0.22814814E+02
0.94917889E+01
0.35681462E+01
0.17753437E+01
0.12499886E+01
0.98610491E+00
0.78262800E+00
0.59675062E+00
0.43925214E+00
0.32380334E+00
0.23501386E+00
0.17140442E+00
0.12550348E+00
0.92803463E-01
0.70794895E-01
0.54729231E-01
0.43181654E-01
0.34825910E-01
0.28647603E-01
0.24048328E-01
0.20521903E-01
0.17753359E-01
0.15545842E-01
0.13770029E-01
0.12342418E-01
0.11122316E-01
0.10079926E-01
0.91928355E-02
0.84132934E-02
0.77315401E-02
0.71176286E-02
0.65636812E-02
0.60664169E-02
0.56135776E-02
0.51925341E-02
0.47964333E-02
0.44327518E-02
0.40969634E-02
0.37778332E-02
0.34829271E-02
0.32088491E-02
0.29510746E-02
0.27125129E-02
0.24885754E-02
0.22800069E-02
0.20859758E-02
0.19074576E-02
