atomic number =   56
effective nuclear charge =   56
electron count =   54
net charge =    2
basis set = approximate basis set limit (UGBS)      
exchange correlation functional = PW91PW91            
cutoff radius (picometer) =  300
number of shells =   50
prepared by = Thomas A. Manz      
prepared date = July 2010           
magnetization =    0
density in atomic units:
0.24841400E+05
0.17865318E+03
0.61149265E+02
0.16784512E+02
0.90777264E+01
0.66323624E+01
0.42624650E+01
0.25141261E+01
0.14173868E+01
0.84016752E+00
0.54143077E+00
0.38595253E+00
0.30161098E+00
0.24173404E+00
0.19559801E+00
0.15675209E+00
0.12386167E+00
0.97729705E-01
0.75795054E-01
0.58129009E-01
0.44219084E-01
0.33355657E-01
0.25060501E-01
0.18716065E-01
0.13880549E-01
0.10235155E-01
0.75283581E-02
0.55635115E-02
0.40781638E-02
0.29774145E-02
0.21793232E-02
0.15907359E-02
0.11644154E-02
0.85041963E-03
0.62090374E-03
0.45547684E-03
0.33492243E-03
0.24580161E-03
0.17945815E-03
0.13142757E-03
0.96523319E-04
0.70418973E-04
0.51424842E-04
0.37513633E-04
0.27208489E-04
0.19737779E-04
0.14243189E-04
0.10240484E-04
0.73335159E-05
0.52576033E-05
