atomic number =   12
effective nuclear charge =   12
electron count =   11
net charge =    1
basis set = approximate basis set limit (UGBS)      
exchange correlation functional = PW91PW91            
cutoff radius (picometer) =  300
number of shells =   50
prepared by = Thomas A. Manz      
prepared date = July 2010           
magnetization =    1
density in atomic units:
0.25489059E+03
0.21675451E+02
0.75867739E+01
0.50569725E+01
0.33793693E+01
0.20408072E+01
0.11942612E+01
0.70672959E+00
0.40900388E+00
0.23866627E+00
0.13825527E+00
0.80761500E-01
0.50344497E-01
0.32337677E-01
0.21974251E-01
0.15775044E-01
0.11962449E-01
0.96521303E-02
0.80475910E-02
0.68873535E-02
0.59965728E-02
0.52690855E-02
0.46565584E-02
0.41206395E-02
0.36422128E-02
0.32128289E-02
0.28301829E-02
0.24957794E-02
0.21907005E-02
0.19174129E-02
0.16776621E-02
0.14641882E-02
0.12778708E-02
0.11127803E-02
0.96790830E-03
0.84293267E-03
0.73442451E-03
0.63903601E-03
0.55460411E-03
0.48205556E-03
0.41955779E-03
0.36420816E-03
0.31660977E-03
0.27547311E-03
0.23944235E-03
0.20840368E-03
0.18120882E-03
0.15755132E-03
0.13696763E-03
0.11919580E-03
