atomic number =   76
effective nuclear charge =   76
electron count =   73
net charge =    3
basis set = approximate basis set limit (UGBS)      
exchange correlation functional = PW91PW91            
cutoff radius (picometer) =  300
number of shells =   50
prepared by = Thomas A. Manz      
prepared date = July 2010           
magnetization =    5
density in atomic units:
0.66478227E+05
0.26582193E+03
0.67370979E+02
0.39628761E+02
0.20317116E+02
0.85378304E+01
0.40305171E+01
0.23968213E+01
0.15910902E+01
0.11117777E+01
0.77098882E+00
0.52694577E+00
0.36688122E+00
0.25249049E+00
0.17468962E+00
0.12075614E+00
0.83541535E-01
0.59225764E-01
0.41989762E-01
0.30009093E-01
0.21678928E-01
0.15807878E-01
0.11678634E-01
0.87133804E-02
0.65515987E-02
0.49645975E-02
0.37969225E-02
0.29435121E-02
0.22845480E-02
0.17795290E-02
0.13969765E-02
0.10997156E-02
0.87129237E-03
0.69178501E-03
0.55118691E-03
0.44211105E-03
0.35633604E-03
0.28768202E-03
0.23212589E-03
0.18821743E-03
0.15323520E-03
0.12447423E-03
0.10145177E-03
0.82877807E-04
0.67652589E-04
0.55322151E-04
0.45201294E-04
0.36942638E-04
0.30194838E-04
0.24717221E-04
