atomic number =   15
effective nuclear charge =   15
electron count =   13
net charge =    2
basis set = approximate basis set limit (UGBS)      
exchange correlation functional = PW91PW91            
cutoff radius (picometer) =  300
number of shells =   50
prepared by = Thomas A. Manz      
prepared date = July 2010           
magnetization =    1
density in atomic units:
0.44113571E+03
0.27552210E+02
0.13445639E+02
0.77535090E+01
0.39997797E+01
0.18195956E+01
0.82481170E+00
0.40972933E+00
0.22377276E+00
0.14490829E+00
0.10796327E+00
0.87673038E-01
0.74437581E-01
0.63036300E-01
0.53002290E-01
0.43876030E-01
0.35817854E-01
0.29232861E-01
0.23578245E-01
0.18908478E-01
0.15128762E-01
0.12077597E-01
0.96561722E-02
0.77228635E-02
0.61727255E-02
0.49376413E-02
0.39605875E-02
0.32016465E-02
0.25836686E-02
0.20869130E-02
0.16943646E-02
0.13772136E-02
0.11245747E-02
0.91908500E-03
0.75255439E-03
0.61934965E-03
0.51139708E-03
0.42252243E-03
0.34871569E-03
0.28891108E-03
0.24023248E-03
0.19939693E-03
0.16606455E-03
0.13867294E-03
0.11584171E-03
0.97057004E-04
0.81325765E-04
0.68198300E-04
0.57233647E-04
0.48145597E-04
