atomic number =   78
effective nuclear charge =   78
electron count =   73
net charge =    5
basis set = approximate basis set limit (UGBS)      
exchange correlation functional = PW91PW91            
cutoff radius (picometer) =  500
number of shells =  100
prepared by = Thomas A. Manz      
prepared date = July 2010           
magnetization =    5
density in atomic units:
0.49984200E+06
0.55617444E+03
0.11894984E+03
0.56754414E+02
0.34004772E+02
0.17858341E+02
0.87937136E+01
0.46200233E+01
0.29054604E+01
0.20203724E+01
0.14552236E+01
0.10671674E+01
0.76540971E+00
0.53728902E+00
0.38165900E+00
0.27077699E+00
0.18900380E+00
0.13347700E+00
0.95004074E-01
0.67601845E-01
0.49002416E-01
0.36188081E-01
0.26818665E-01
0.20072933E-01
0.15259246E-01
0.11696316E-01
0.90465471E-02
0.70965090E-02
0.55956999E-02
0.44579129E-02
0.35887815E-02
0.28989434E-02
0.23609542E-02
0.19349267E-02
0.15919048E-02
0.13116276E-02
0.10829013E-02
0.89658139E-03
0.74584561E-03
0.62053587E-03
0.51704474E-03
0.43156606E-03
0.36028365E-03
0.30245041E-03
0.25403357E-03
0.21269916E-03
0.17862486E-03
0.15070396E-03
0.12696240E-03
0.10708030E-03
0.90405207E-04
0.76328375E-04
0.64672466E-04
0.54928380E-04
0.46691661E-04
0.39728660E-04
0.33815129E-04
0.28839624E-04
0.24637344E-04
0.21094862E-04
0.18056144E-04
0.15463669E-04
0.13273793E-04
0.11399255E-04
0.97915472E-05
0.84255462E-05
0.72466114E-05
0.62192730E-05
0.53474341E-05
0.45953475E-05
0.39534571E-05
0.33968902E-05
0.29118594E-05
0.25020972E-05
0.21465605E-05
0.18440245E-05
0.15947545E-05
0.13772564E-05
0.11937179E-05
0.10350427E-05
0.89313528E-06
0.77367946E-06
0.66730132E-06
0.57778732E-06
0.49848899E-06
0.43093107E-06
0.37239190E-06
0.32152192E-06
0.27780430E-06
0.23895853E-06
0.20611911E-06
0.17822137E-06
0.15326761E-06
0.13214472E-06
0.11394734E-06
0.98066074E-07
0.84344173E-07
0.72429160E-07
0.62376941E-07
0.53337562E-07
