atomic number =   42
effective nuclear charge =   42
electron count =   37
net charge =    5
basis set = approximate basis set limit (UGBS)      
exchange correlation functional = PW91PW91            
cutoff radius (picometer) =  300
number of shells =   50
prepared by = Thomas A. Manz      
prepared date = July 2010           
magnetization =    1
density in atomic units:
0.97981553E+04
0.11675195E+03
0.43632336E+02
0.22803747E+02
0.94818058E+01
0.35632646E+01
0.17625825E+01
0.12159069E+01
0.93011129E+00
0.70856935E+00
0.51386940E+00
0.35377595E+00
0.24180387E+00
0.16006783E+00
0.10456097E+00
0.67005709E-01
0.42601608E-01
0.27554186E-01
0.17813182E-01
0.11464925E-01
0.75605493E-02
0.50377334E-02
0.34052203E-02
0.23913023E-02
0.16803325E-02
0.12349474E-02
0.90816105E-03
0.69365936E-03
0.53490314E-03
0.41139830E-03
0.32344606E-03
0.25579028E-03
0.20526783E-03
0.16549921E-03
0.13277891E-03
0.10926397E-03
0.89742462E-04
0.74433454E-04
0.63209176E-04
0.53774918E-04
0.45937853E-04
0.38975457E-04
0.32946038E-04
0.28065115E-04
0.23594865E-04
0.19669638E-04
0.16496720E-04
0.13949788E-04
0.11754845E-04
0.99568160E-05
