atomic number =   42
effective nuclear charge =   42
electron count =   41
net charge =    1
basis set = approximate basis set limit (UGBS)      
exchange correlation functional = PW91PW91            
cutoff radius (picometer) =  300
number of shells =   50
prepared by = Thomas A. Manz      
prepared date = July 2010           
magnetization =    5
density in atomic units:
0.97959922E+04
0.11718970E+03
0.43714676E+02
0.22811235E+02
0.94921923E+01
0.35622139E+01
0.17671369E+01
0.12459320E+01
0.98882675E+00
0.79117012E+00
0.60880333E+00
0.45218328E+00
0.33565164E+00
0.24458587E+00
0.17822073E+00
0.12944378E+00
0.94058901E-01
0.69832101E-01
0.51896013E-01
0.38871992E-01
0.29405864E-01
0.22426257E-01
0.17286638E-01
0.13423484E-01
0.10478215E-01
0.82203969E-02
0.64911316E-02
0.51800255E-02
0.41333069E-02
0.33062669E-02
0.26618075E-02
0.21477311E-02
0.17429199E-02
0.14172836E-02
0.11562801E-02
0.94931870E-03
0.78292954E-03
0.64676057E-03
0.53416082E-03
0.44324249E-03
0.36931803E-03
0.30731814E-03
0.25664660E-03
0.21490676E-03
0.17998263E-03
0.15116997E-03
0.12699513E-03
0.10679351E-03
0.89905559E-04
0.75875396E-04
