atomic number =   12
effective nuclear charge =   12
electron count =   10
net charge =    2
basis set = approximate basis set limit (UGBS)      
exchange correlation functional = PW91PW91            
cutoff radius (picometer) =  300
number of shells =   50
prepared by = Thomas A. Manz      
prepared date = July 2010           
magnetization =    0
density in atomic units:
0.25459399E+03
0.21698681E+02
0.75892167E+01
0.50474153E+01
0.33716497E+01
0.20378668E+01
0.11940030E+01
0.70681173E+00
0.40808484E+00
0.23623981E+00
0.13425718E+00
0.75445876E-01
0.44134606E-01
0.25549047E-01
0.14907649E-01
0.86729815E-02
0.50142221E-02
0.29843436E-02
0.17587271E-02
0.10363878E-02
0.61237178E-03
0.36145485E-03
0.21434879E-03
0.12706225E-03
0.75079799E-04
0.44224231E-04
0.26035121E-04
0.15457026E-04
0.90737976E-05
0.52788105E-05
0.31112299E-05
0.18232583E-05
0.10578548E-05
0.61802945E-06
0.35806252E-06
0.21070639E-06
0.12411030E-06
0.73661958E-07
0.43247447E-07
0.25889197E-07
0.15370262E-07
0.91314867E-08
0.53574727E-08
0.31345251E-08
0.18290545E-08
0.10456994E-08
0.58647404E-09
0.32509473E-09
0.17455144E-09
0.91904692E-10
