atomic number =   56
effective nuclear charge =   56
electron count =   56
net charge =    0
basis set = approximate basis set limit (UGBS)      
exchange correlation functional = PW91PW91            
cutoff radius (picometer) =  300
number of shells =   50
prepared by = Thomas A. Manz      
prepared date = July 2010           
magnetization =    0
density in atomic units:
0.24843127E+05
0.17865311E+03
0.61151253E+02
0.16786844E+02
0.90803871E+01
0.66314754E+01
0.42610397E+01
0.25147443E+01
0.14201612E+01
0.84383327E+00
0.54469353E+00
0.38801602E+00
0.30237186E+00
0.24137223E+00
0.19452398E+00
0.15541229E+00
0.12264785E+00
0.96912682E-01
0.75552046E-01
0.58531970E-01
0.45265440E-01
0.34998864E-01
0.27217444E-01
0.21298843E-01
0.16799623E-01
0.13402814E-01
0.10863749E-01
0.89939106E-02
0.75459704E-02
0.64322529E-02
0.55802334E-02
0.49046306E-02
0.43669464E-02
0.39215907E-02
0.35469702E-02
0.32294972E-02
0.29527401E-02
0.27040897E-02
0.24762533E-02
0.22710373E-02
0.20842922E-02
0.19088951E-02
0.17483090E-02
0.16003741E-02
0.14621528E-02
0.13351920E-02
0.12168823E-02
0.11073315E-02
0.10062497E-02
0.91386848E-03
