atomic number =   40
effective nuclear charge =   40
electron count =   35
net charge =    5
basis set = approximate basis set limit (UGBS)      
exchange correlation functional = PW91                
cutoff radius (picometer) =  500
number of shells =  100
prepared by = Thomas A. Manz      
prepared date = 2011                
magnetization =    1
density in atomic units:
0.55767602E+05
0.25259470E+03
0.53908535E+02
0.30803900E+02
0.17457777E+02
0.91219053E+01
0.44043398E+01
0.21608589E+01
0.12809563E+01
0.90129858E+00
0.69746715E+00
0.56070256E+00
0.44253135E+00
0.33923391E+00
0.25798532E+00
0.19251715E+00
0.13902204E+00
0.99479742E-01
0.70251241E-01
0.48524179E-01
0.33463024E-01
0.23105521E-01
0.15707286E-01
0.10611334E-01
0.71959277E-02
0.48597301E-02
0.32761157E-02
0.22270053E-02
0.15074241E-02
0.10256937E-02
0.70353755E-03
0.48084991E-03
0.33083343E-03
0.22856661E-03
0.15794767E-03
0.10885139E-03
0.74860422E-04
0.51479463E-04
0.35576009E-04
0.24461668E-04
0.16744187E-04
0.11447715E-04
0.77669793E-05
0.52870782E-05
0.36006495E-05
0.24042135E-05
0.16383983E-05
0.11294351E-05
0.77817788E-06
0.54029073E-06
0.38407177E-06
0.26686058E-06
0.18959177E-06
0.13673203E-06
0.99081092E-07
0.71466296E-07
0.51581292E-07
0.38121911E-07
0.28632449E-07
0.21850447E-07
0.16976182E-07
0.13421652E-07
0.10774296E-07
0.86995362E-08
0.70818102E-08
0.57865410E-08
0.47339488E-08
0.38814094E-08
0.31603593E-08
0.25498170E-08
0.20717750E-08
0.16576481E-08
0.13261692E-08
0.10580863E-08
0.83470114E-09
0.65430877E-09
0.51120713E-09
0.39508885E-09
0.30434474E-09
0.23272316E-09
0.17653608E-09
0.13309179E-09
0.99527435E-10
0.74030400E-10
0.55355200E-10
0.40793140E-10
0.30112537E-10
0.22069608E-10
0.16130547E-10
0.11622429E-10
0.83150318E-11
0.60728653E-11
0.43113837E-11
0.30666984E-11
0.21744217E-11
0.15332526E-11
0.10868641E-11
0.76891867E-12
0.52387370E-12
0.36209428E-12
