atomic number =   55
effective nuclear charge =   55
electron count =   56
net charge =   -1
basis set = approximate basis set limit (UGBS)      
exchange correlation functional = PW91                
cutoff radius (picometer) =  300
number of shells =   50
prepared by = Thomas A. Manz      
prepared date = 2011                
magnetization =    0
density in atomic units:
0.23430838E+05
0.17307977E+03
0.61565460E+02
0.17034822E+02
0.85139036E+01
0.62878900E+01
0.42293625E+01
0.25916541E+01
0.14933578E+01
0.88111645E+00
0.55053407E+00
0.37696874E+00
0.28675377E+00
0.22753912E+00
0.18511976E+00
0.15093426E+00
0.12235463E+00
0.99481210E-01
0.79902560E-01
0.63709773E-01
0.50565440E-01
0.39953429E-01
0.31565279E-01
0.24914240E-01
0.19653004E-01
0.15527843E-01
0.12337598E-01
0.99223154E-02
0.80129104E-02
0.65290104E-02
0.53972513E-02
0.45156153E-02
0.38384933E-02
0.33067912E-02
0.28898441E-02
0.25646868E-02
0.23066173E-02
0.20962553E-02
0.19215300E-02
0.17781277E-02
0.16580746E-02
0.15529681E-02
0.14621002E-02
0.13816217E-02
0.13082706E-02
0.12414722E-02
0.11789649E-02
0.11201955E-02
0.10644498E-02
0.10117798E-02
