atomic number =  104
effective nuclear charge =  104
electron count =  105
net charge =   -1
basis set = approximate basis set limit (UGBS)      
exchange correlation functional = PW91                
cutoff radius (picometer) =  300
number of shells =   50
prepared by = Thomas A. Manz      
prepared date = 2012                
magnetization =    3
density in atomic units:
0.17062188E+06
0.36463242E+03
0.12499821E+03
0.34872192E+02
0.18257111E+02
0.11681841E+02
0.68057313E+01
0.40120983E+01
0.24512541E+01
0.15964700E+01
0.10670394E+01
0.72214508E+00
0.50609452E+00
0.35361618E+00
0.24914187E+00
0.17555593E+00
0.12500805E+00
0.91637418E-01
0.68456061E-01
0.51780570E-01
0.40556062E-01
0.32389317E-01
0.26299587E-01
0.22085322E-01
0.18554898E-01
0.16078915E-01
0.13889612E-01
0.12240510E-01
0.10823164E-01
0.95271608E-02
0.84650973E-02
0.75264191E-02
0.67262836E-02
0.60117911E-02
0.53499090E-02
0.48051290E-02
0.42940830E-02
0.38286974E-02
0.34164679E-02
0.30422625E-02
0.27256308E-02
0.24301298E-02
0.21632996E-02
0.19307116E-02
0.17160998E-02
0.15278386E-02
0.13575600E-02
0.12074055E-02
0.10717233E-02
0.95301116E-03
