atomic number =  106
effective nuclear charge =  106
electron count =  106
net charge =    0
basis set = approximate basis set limit (UGBS)      
exchange correlation functional = PW91PW91            
cutoff radius (picometer) =  300
number of shells =   50
prepared by = Thomas A. Manz      
prepared date = July 2010           
magnetization =    4
density in atomic units:
0.17974630E+06
0.37499640E+03
0.12414271E+03
0.34696266E+02
0.19534046E+02
0.12175210E+02
0.68459425E+01
0.39716599E+01
0.24192460E+01
0.15762944E+01
0.10516708E+01
0.70921862E+00
0.49608985E+00
0.34742662E+00
0.24696361E+00
0.17708957E+00
0.12909292E+00
0.97304106E-01
0.74659072E-01
0.58164105E-01
0.46420112E-01
0.37560139E-01
0.30766781E-01
0.25588740E-01
0.21309154E-01
0.17934319E-01
0.15091540E-01
0.12816391E-01
0.10862088E-01
0.91812769E-02
0.77888034E-02
0.65989983E-02
0.56028590E-02
0.47494955E-02
0.40197312E-02
0.34152204E-02
0.29002540E-02
0.24589435E-02
0.20804550E-02
0.17622486E-02
0.14967197E-02
0.12666343E-02
0.10732500E-02
0.91064879E-03
0.77133114E-03
0.65444421E-03
0.55464910E-03
0.47020410E-03
0.39851601E-03
0.33835680E-03
