atomic number =  104
effective nuclear charge =  104
electron count =  104
net charge =    0
basis set = approximate basis set limit (UGBS)      
exchange correlation functional = PW91PW91            
cutoff radius (picometer) =  300
number of shells =   50
prepared by = Thomas A. Manz      
prepared date = July 2010           
magnetization =    2
density in atomic units:
0.17062345E+06
0.36464304E+03
0.12499414E+03
0.34876041E+02
0.18255978E+02
0.11679428E+02
0.68077617E+01
0.40165114E+01
0.24552729E+01
0.15985836E+01
0.10665947E+01
0.71994913E+00
0.50288647E+00
0.34983397E+00
0.24537596E+00
0.17230254E+00
0.12204009E+00
0.89142434E-01
0.66167451E-01
0.49993534E-01
0.38934540E-01
0.30976174E-01
0.25143199E-01
0.20930029E-01
0.17543096E-01
0.14995807E-01
0.12852836E-01
0.11168055E-01
0.97147506E-02
0.84331306E-02
0.73584961E-02
0.64163320E-02
0.56084003E-02
0.48948047E-02
0.42598252E-02
0.37229834E-02
0.32459560E-02
0.28232408E-02
0.24507386E-02
0.21263699E-02
0.18498675E-02
0.16022337E-02
0.13874355E-02
0.12026421E-02
0.10395582E-02
0.89952914E-03
0.77698473E-03
0.67107822E-03
0.57894865E-03
0.50011853E-03
