atomic number =  105
effective nuclear charge =  105
electron count =    2
net charge =  103
basis set = approximate basis set limit (UGBS)      
exchange correlation functional = PW91PW91            
cutoff radius (picometer) =  300
number of shells =   50
prepared by = Thomas A. Manz      
prepared date = July 2010           
net magnetization =    0
density in atomic units:
0.14191008E+06
0.12940835E-02
0.99660392E-04
0.31991767E-04
0.69267276E-05
0.19394315E-05
0.13138584E-05
0.71207791E-06
0.51971000E-07
0.23562428E-06
0.15948447E-06
0.19746807E-07
0.10937663E-07
0.37665920E-07
0.36748133E-07
0.17355749E-07
0.30574627E-08
0.47167809E-09
0.35307017E-08
0.62756889E-08
0.63715313E-08
0.45189914E-08
0.22880424E-08
0.70882061E-09
0.62650281E-10
0.13066097E-09
0.50834165E-09
0.86234425E-09
0.10419486E-08
0.10126243E-08
0.83241863E-09
0.58485317E-09
0.34748021E-09
0.16277669E-09
0.49871333E-10
0.48669723E-11
0.87170314E-11
0.41271767E-10
0.84471062E-10
0.12319665E-09
0.14952149E-09
0.16092187E-09
0.15764025E-09
0.14295544E-09
0.12073595E-09
0.95333900E-10
0.69831224E-10
0.46945302E-10
0.28266145E-10
0.14594359E-10
