atomic number =   62
effective nuclear charge =   62
electron count =   54
net charge =    8
basis set = approximate basis set limit (UGBS)      
exchange correlation functional = PW91PW91            
cutoff radius (picometer) =  300
number of shells =   50
prepared by = Thomas A. Manz      
prepared date = July 2010           
net magnetization =    0
density in atomic units:
0.34547547E+05
0.20860017E+03
0.55420063E+02
0.17275637E+02
0.11813987E+02
0.72049470E+01
0.37134380E+01
0.19144088E+01
0.10513920E+01
0.67161399E+00
0.48171842E+00
0.36767334E+00
0.29031780E+00
0.22634900E+00
0.17457977E+00
0.13203867E+00
0.98103322E-01
0.73052831E-01
0.53539425E-01
0.38932823E-01
0.28204435E-01
0.20345598E-01
0.14685859E-01
0.10580671E-01
0.75962199E-02
0.54398798E-02
0.38974581E-02
0.28141239E-02
0.20186780E-02
0.14443357E-02
0.10377527E-02
0.74442546E-03
0.53625024E-03
0.38579071E-03
0.27778692E-03
0.20123477E-03
0.14631184E-03
0.10628670E-03
0.76906901E-04
0.55888439E-04
0.40765219E-04
0.29566372E-04
0.21503927E-04
0.15663403E-04
0.11374955E-04
0.82741135E-05
0.60002985E-05
0.43450682E-05
0.31413526E-05
0.22754280E-05
