atomic number =   23
effective nuclear charge =   23
electron count =   18
net charge =    5
basis set = approximate basis set limit (UGBS)      
exchange correlation functional = PW91PW91            
cutoff radius (picometer) =  500
number of shells =  100
prepared by = Thomas A. Manz      
prepared date = July 2010           
net magnetization =    0
density in atomic units:
0.92286982E+04
0.10413995E+03
0.40628262E+02
0.13193872E+02
0.43016696E+01
0.22617106E+01
0.16985189E+01
0.14252622E+01
0.11745753E+01
0.91415650E+00
0.67934406E+00
0.49590731E+00
0.34939808E+00
0.23954560E+00
0.16588354E+00
0.11432829E+00
0.76963522E-01
0.52057922E-01
0.35170898E-01
0.23463311E-01
0.15787605E-01
0.10726381E-01
0.72174519E-02
0.48496136E-02
0.32823973E-02
0.22171619E-02
0.14965417E-02
0.10187298E-02
0.69026457E-03
0.46977727E-03
0.32196729E-03
0.21963168E-03
0.15065780E-03
0.10370625E-03
0.71389171E-04
0.48979651E-04
0.33544664E-04
0.22993205E-04
0.15845419E-04
0.10891570E-04
0.74837862E-05
0.51514235E-05
0.35402791E-05
0.24578610E-05
0.17076513E-05
0.11776160E-05
0.81648631E-06
0.57179756E-06
0.39907047E-06
0.27887953E-06
0.19517735E-06
0.13636151E-06
0.95740234E-07
0.67419862E-07
0.47366598E-07
0.33181230E-07
0.23132271E-07
0.16092184E-07
0.11172289E-07
0.77427753E-08
0.53390603E-08
0.36638426E-08
0.25080509E-08
0.17068214E-08
0.11550958E-08
0.78275469E-09
0.52868859E-09
0.35436049E-09
0.23750787E-09
0.15915319E-09
0.10782215E-09
0.73876960E-10
0.51367730E-10
0.36649562E-10
0.26826525E-10
0.20290552E-10
0.15882734E-10
0.12793376E-10
0.10555112E-10
0.88817261E-11
0.75573610E-11
0.64608267E-11
0.55198524E-11
0.46871335E-11
0.39769169E-11
0.33574320E-11
0.27890949E-11
0.23176244E-11
0.19038451E-11
0.15502795E-11
0.12657201E-11
0.10405572E-11
0.85982415E-12
0.72838139E-12
0.64181727E-12
0.58651543E-12
0.56484543E-12
0.56850791E-12
0.59090021E-12
0.63080015E-12
