atomic number =   74
effective nuclear charge =   74
electron count =   18
net charge =   56
basis set = approximate basis set limit (UGBS)      
exchange correlation functional = PW91PW91            
cutoff radius (picometer) =  400
number of shells =   75
prepared by = Thomas A. Manz      
prepared date = July 2010           
net magnetization =    0
density in atomic units:
0.60258000E+05
0.14676270E+03
0.36192108E+02
0.44082608E+01
0.38638368E+00
0.25584200E-01
0.15179152E-02
0.10113142E-03
0.73842957E-05
0.56551960E-06
0.17561008E-06
0.14784916E-06
0.45233875E-07
0.42035979E-08
0.17741547E-07
0.31296999E-07
0.26059981E-07
0.12401241E-07
0.28710474E-08
0.42645187E-09
0.20821831E-08
0.43324322E-08
0.52289741E-08
0.45531556E-08
0.30672889E-08
0.15664962E-08
0.53680160E-09
0.87692936E-10
0.88626481E-10
0.32534503E-09
0.59178573E-09
0.77715495E-09
0.83622587E-09
0.77277718E-09
0.63240940E-09
0.45931539E-09
0.29036082E-09
0.15569020E-09
0.65626705E-10
0.17344307E-10
0.49561405E-11
0.17610403E-10
0.43602046E-10
0.73416100E-10
0.99671098E-10
0.11835605E-09
0.12767518E-09
0.12773217E-09
0.11993651E-09
0.10633694E-09
0.89395484E-10
0.71262614E-10
0.53511858E-10
0.37590837E-10
0.24484329E-10
0.14242163E-10
0.70049773E-11
0.26503808E-11
0.73025592E-12
0.72536898E-12
0.21254996E-11
0.44096515E-11
0.71484342E-11
0.10001453E-10
0.12652105E-10
0.14900808E-10
0.16623338E-10
0.17773052E-10
0.18352136E-10
0.18363783E-10
0.17874750E-10
0.16998224E-10
0.15790678E-10
0.14355521E-10
0.12795659E-10
