atomic number =   62
effective nuclear charge =   62
electron count =   10
net charge =   52
basis set = approximate basis set limit (UGBS)      
exchange correlation functional = PW91PW91            
cutoff radius (picometer) =  300
number of shells =   50
prepared by = Thomas A. Manz      
prepared date = July 2010           
net magnetization =    0
density in atomic units:
0.33365879E+05
0.31283367E+02
0.27245492E+00
0.16005387E-02
0.13615710E-04
0.45923255E-06
0.30321718E-06
0.16088886E-06
0.13382237E-07
0.55541321E-07
0.37257820E-07
0.48370450E-08
0.27868678E-08
0.89654080E-08
0.87206811E-08
0.41610813E-08
0.78120665E-09
0.14847412E-09
0.85335444E-09
0.14974236E-08
0.15229574E-08
0.10876267E-08
0.55880439E-09
0.18091793E-09
0.22925748E-10
0.35093914E-10
0.12251174E-09
0.20601694E-09
0.24917626E-09
0.24304120E-09
0.20089694E-09
0.14224391E-09
0.85611428E-10
0.41152012E-10
0.13639042E-10
0.23020017E-11
0.27137971E-11
0.10121169E-10
0.20227339E-10
0.29407289E-10
0.35736459E-10
0.38558622E-10
0.37895236E-10
0.34487729E-10
0.29257589E-10
0.23225493E-10
0.17133781E-10
0.11636409E-10
0.71205177E-11
0.37898157E-11
