atomic number =   92
effective nuclear charge =   92
electron count =   36
net charge =   56
basis set = approximate basis set limit (UGBS)      
exchange correlation functional = PW91PW91            
cutoff radius (picometer) =  300
number of shells =   50
prepared by = Thomas A. Manz      
prepared date = July 2010           
net magnetization =    0
density in atomic units:
0.11955554E+06
0.23045551E+03
0.35979294E+02
0.12073929E+02
0.27280755E+01
0.41365838E+00
0.54864474E-01
0.77499575E-02
0.96347166E-03
0.12460032E-03
0.17651470E-04
0.23934647E-05
0.32899007E-06
0.91492467E-07
0.74310641E-07
0.41077080E-07
0.11338354E-07
0.31294376E-08
0.76212610E-08
0.13096549E-07
0.13839793E-07
0.10461321E-07
0.58969523E-08
0.23643880E-08
0.65769579E-09
0.49603455E-09
0.11155786E-08
0.18129007E-08
0.22240427E-08
0.22260285E-08
0.19010784E-08
0.14063102E-08
0.90303298E-09
0.48772231E-09
0.21249254E-09
0.79893835E-10
0.56626037E-10
0.10325073E-09
0.18223600E-09
0.26051605E-09
0.31859582E-09
0.34843289E-09
0.34825706E-09
0.32309946E-09
0.28034003E-09
0.22857539E-09
0.17447077E-09
0.12409065E-09
0.81392261E-10
0.48634881E-10
