atomic number =   93
effective nuclear charge =   93
electron count =    4
net charge =   89
basis set = approximate basis set limit (UGBS)      
exchange correlation functional = PW91PW91            
cutoff radius (picometer) =  300
number of shells =   50
prepared by = Thomas A. Manz      
prepared date = July 2010           
net magnetization =    0
density in atomic units:
0.11766629E+06
0.69041806E+00
0.43881882E-03
0.34463359E-04
0.81335802E-05
0.21362141E-05
0.15627764E-05
0.81462434E-06
0.62380501E-07
0.28057633E-06
0.18647410E-06
0.22488452E-07
0.13404179E-07
0.45026923E-07
0.43545505E-07
0.20419863E-07
0.35449395E-08
0.58029603E-09
0.42548596E-08
0.75039219E-08
0.75899136E-08
0.53676241E-08
0.27090650E-08
0.83439644E-09
0.72463008E-10
0.15907055E-09
0.61142247E-09
0.10331048E-08
0.12455803E-08
0.12088331E-08
0.99257813E-09
0.69656680E-09
0.41331305E-09
0.19321127E-09
0.58942719E-10
0.56693894E-11
0.10609292E-10
0.49689860E-10
0.10134147E-09
0.14757784E-09
0.17891760E-09
0.19246188E-09
0.18842355E-09
0.17078712E-09
0.14419607E-09
0.11381267E-09
0.83335477E-10
0.55993623E-10
0.33689104E-10
0.17376673E-10
