atomic number =   93
effective nuclear charge =   93
electron count =   30
net charge =   63
basis set = approximate basis set limit (UGBS)      
exchange correlation functional = PW91PW91            
cutoff radius (picometer) =  300
number of shells =   50
prepared by = Thomas A. Manz      
prepared date = July 2010           
net magnetization =    0
density in atomic units:
0.12339224E+06
0.21772438E+03
0.16838049E+02
0.30009668E+01
0.53264147E+00
0.64900734E-01
0.66893203E-02
0.73986099E-03
0.75510150E-04
0.97028696E-05
0.16370407E-05
0.19397974E-06
0.24002194E-07
0.68074193E-07
0.73734178E-07
0.38257877E-07
0.89714787E-08
0.22074784E-08
0.73877771E-08
0.12768092E-07
0.13204480E-07
0.96886206E-08
0.52186144E-08
0.19064919E-08
0.42178577E-09
0.40808248E-09
0.10866111E-08
0.17794618E-08
0.21572100E-08
0.21251636E-08
0.17818846E-08
0.12881860E-08
0.80100360E-09
0.41027470E-09
0.16076430E-09
0.49732427E-10
0.41702065E-10
0.96971542E-10
0.17891735E-09
0.25608696E-09
0.31080219E-09
0.33671888E-09
0.33300035E-09
0.30548941E-09
0.26178684E-09
0.21047011E-09
0.15789020E-09
0.10982243E-09
0.69751163E-10
0.39676110E-10
