atomic number =   96
effective nuclear charge =   96
electron count =   78
net charge =   18
basis set = approximate basis set limit (UGBS)      
exchange correlation functional = PW91PW91            
cutoff radius (picometer) =  300
number of shells =   50
prepared by = Thomas A. Manz      
prepared date = July 2010           
net magnetization =    0
density in atomic units:
0.13593908E+06
0.32262057E+03
0.11854613E+03
0.39271706E+02
0.14243086E+02
0.80112019E+01
0.48611403E+01
0.27479863E+01
0.14067384E+01
0.68787301E+00
0.31953165E+00
0.14415121E+00
0.68627387E-01
0.32159049E-01
0.15118435E-01
0.70283646E-02
0.31999650E-02
0.15138133E-02
0.70644793E-03
0.33086573E-03
0.15625544E-03
0.73777599E-04
0.34955880E-04
0.16474562E-04
0.76733886E-05
0.35595579E-05
0.16670529E-05
0.81459905E-06
0.40887312E-06
0.21497979E-06
0.12079812E-06
0.71226424E-07
0.43762032E-07
0.27264255E-07
0.16970340E-07
0.10507414E-07
0.64320118E-08
0.39148889E-08
0.24431659E-08
0.16874290E-08
0.13574685E-08
0.12530650E-08
0.12479948E-08
0.12611167E-08
0.12491864E-08
0.11960312E-08
0.11008454E-08
0.97469710E-09
0.83092644E-09
0.68480277E-09
