atomic number =   97
effective nuclear charge =   97
electron count =   86
net charge =   11
basis set = approximate basis set limit (UGBS)      
exchange correlation functional = PW91PW91            
cutoff radius (picometer) =  500
number of shells =  100
prepared by = Thomas A. Manz      
prepared date = July 2010           
net magnetization =    0
density in atomic units:
0.97234494E+06
0.72691833E+03
0.18149243E+03
0.77948425E+02
0.25846642E+02
0.13436855E+02
0.88402710E+01
0.56576777E+01
0.34831643E+01
0.20968037E+01
0.12966371E+01
0.87448895E+00
0.62622297E+00
0.47090781E+00
0.37110874E+00
0.29608032E+00
0.23371983E+00
0.18450537E+00
0.14462511E+00
0.11171022E+00
0.86184859E-01
0.66494718E-01
0.50707784E-01
0.38462218E-01
0.29214192E-01
0.22085520E-01
0.16643368E-01
0.12585183E-01
0.94613247E-02
0.71205655E-02
0.53743855E-02
0.40358063E-02
0.30388178E-02
0.22916403E-02
0.17273939E-02
0.12984152E-02
0.97498170E-03
0.73299842E-03
0.55371720E-03
0.41772026E-03
0.31537798E-03
0.23851170E-03
0.18026358E-03
0.13730355E-03
0.10460499E-03
0.79209662E-04
0.60197202E-04
0.46039146E-04
0.35085759E-04
0.26735241E-04
0.20372960E-04
0.15489260E-04
0.11811951E-04
0.90234025E-05
0.68795866E-05
0.52336832E-05
0.39686647E-05
0.30070507E-05
0.22777745E-05
0.17248686E-05
0.13036851E-05
0.98324517E-06
0.74161505E-06
0.55788257E-06
0.41875700E-06
0.31513031E-06
0.23671338E-06
0.17678921E-06
0.13179053E-06
0.97908234E-07
0.72846213E-07
0.54114345E-07
0.40070226E-07
0.29660951E-07
0.21820870E-07
0.15994008E-07
0.11716790E-07
0.85602512E-08
0.62429071E-08
0.45600719E-08
0.33181269E-08
0.24085707E-08
0.17474791E-08
0.12656377E-08
0.92540259E-09
0.67820211E-09
0.49799465E-09
0.36939576E-09
0.27472993E-09
0.20660963E-09
0.15768090E-09
0.12245484E-09
0.97375046E-10
0.80113471E-10
0.68434397E-10
0.61131426E-10
0.57338280E-10
0.56351972E-10
0.57622639E-10
0.60821688E-10
