atomic number =   92
effective nuclear charge =   92
electron count =   46
net charge =   46
basis set = approximate basis set limit (UGBS)      
exchange correlation functional = PW91PW91            
cutoff radius (picometer) =  300
number of shells =   50
prepared by = Thomas A. Manz      
prepared date = July 2010           
net magnetization =    0
density in atomic units:
0.11963842E+06
0.24442711E+03
0.64292046E+02
0.26296450E+02
0.68769999E+01
0.12670279E+01
0.21309993E+00
0.38708623E-01
0.63698031E-02
0.10747331E-02
0.18843841E-03
0.31998581E-04
0.58100745E-05
0.93153176E-06
0.16812521E-06
0.46193339E-07
0.11692375E-07
0.38530397E-08
0.78841511E-08
0.13119346E-07
0.14084078E-07
0.11069609E-07
0.67180870E-08
0.31650034E-08
0.12693079E-08
0.86456015E-09
0.12813490E-08
0.18592270E-08
0.22272695E-08
0.22411257E-08
0.19524640E-08
0.14948220E-08
0.10149114E-08
0.60518807E-09
0.31988118E-09
0.16731357E-09
0.12038626E-09
0.14419310E-09
0.20439492E-09
0.26989042E-09
0.32099887E-09
0.34856237E-09
0.34963277E-09
0.32769498E-09
0.28874803E-09
0.24051625E-09
0.18910927E-09
0.14025563E-09
0.97876297E-10
0.64402171E-10
