atomic number =  106
effective nuclear charge =  106
electron count =   86
net charge =   20
basis set = approximate basis set limit (UGBS)      
exchange correlation functional = PW91PW91            
cutoff radius (picometer) =  400
number of shells =   75
prepared by = Thomas A. Manz      
prepared date = July 2010           
net magnetization =    0
density in atomic units:
0.17972495E+06
0.46490701E+03
0.17938156E+03
0.57827255E+02
0.22265369E+02
0.12728307E+02
0.71787958E+01
0.37380166E+01
0.20186148E+01
0.12507607E+01
0.86986101E+00
0.63640404E+00
0.46894568E+00
0.34403747E+00
0.24873617E+00
0.17675991E+00
0.12336327E+00
0.85150093E-01
0.58601528E-01
0.40204071E-01
0.27475983E-01
0.18675523E-01
0.12591952E-01
0.84961597E-02
0.57353624E-02
0.38704360E-02
0.26152111E-02
0.17745573E-02
0.11939360E-02
0.80390641E-03
0.54858840E-03
0.37394106E-03
0.25234380E-03
0.16965660E-03
0.11517666E-03
0.78139979E-04
0.52603991E-04
0.35550449E-04
0.24164332E-04
0.16329663E-04
0.10978811E-04
0.74395607E-05
0.50501185E-05
0.34236402E-05
0.23285545E-05
0.15847756E-05
0.10804248E-05
0.73646606E-06
0.50000983E-06
0.33996707E-06
0.23114450E-06
0.15735110E-06
0.10667100E-06
0.72177741E-07
0.49048641E-07
0.33162820E-07
0.22327766E-07
0.15074741E-07
0.10225845E-07
0.69543060E-08
0.47608277E-08
0.33125511E-08
0.23567279E-08
0.17142011E-08
0.12842573E-08
0.99962127E-09
0.80690576E-09
0.67293349E-09
0.57753752E-09
0.50674853E-09
0.45052098E-09
0.40282830E-09
0.36019651E-09
0.32176203E-09
0.28570674E-09
