atomic number =   58
effective nuclear charge =   58
electron count =   54
net charge =    4
basis set = approximate basis set limit (UGBS)      
exchange correlation functional = PW91PW91            
cutoff radius (picometer) =  500
number of shells =  100
prepared by = Thomas A. Manz      
prepared date = July 2010           
net magnetization =    0
density in atomic units:
0.19058194E+06
0.36270691E+03
0.11648415E+03
0.32611401E+02
0.12769694E+02
0.97386875E+01
0.73904619E+01
0.48576102E+01
0.29869022E+01
0.17848581E+01
0.10933288E+01
0.73363930E+00
0.52891034E+00
0.40680763E+00
0.33137715E+00
0.27494434E+00
0.22669248E+00
0.18671778E+00
0.15245305E+00
0.12256224E+00
0.98117769E-01
0.78328587E-01
0.61744541E-01
0.48334770E-01
0.37809178E-01
0.29398847E-01
0.22755885E-01
0.17643040E-01
0.13588418E-01
0.10463499E-01
0.80713881E-02
0.61916411E-02
0.47585298E-02
0.36607371E-02
0.28138009E-02
0.21566281E-02
0.16510243E-02
0.12651214E-02
0.97360997E-03
0.74821402E-03
0.57528302E-03
0.44293166E-03
0.34074119E-03
0.26395326E-03
0.20446176E-03
0.15743409E-03
0.12159051E-03
0.94455259E-04
0.73107476E-04
0.56574943E-04
0.43774551E-04
0.33796819E-04
0.26170819E-04
0.20300009E-04
0.15719352E-04
0.12150478E-04
0.93664876E-05
0.72167395E-05
0.55611586E-05
0.42869442E-05
0.32993682E-05
0.25365048E-05
0.19502049E-05
0.14976152E-05
0.11473766E-05
0.88213665E-06
0.67706054E-06
0.51722742E-06
0.39448676E-06
0.30006180E-06
0.22867616E-06
0.17407237E-06
0.13208049E-06
0.10020069E-06
0.75657802E-07
0.56962318E-07
0.42797648E-07
0.32037647E-07
0.23935026E-07
0.17874227E-07
0.13276651E-07
0.98187476E-08
0.72379263E-08
0.53237437E-08
0.39224961E-08
0.28947849E-08
0.21324456E-08
0.15748645E-08
0.11663867E-08
0.86720564E-09
0.65268757E-09
0.49675963E-09
0.38370770E-09
0.30366715E-09
0.24613989E-09
0.20524518E-09
0.17674441E-09
0.15693553E-09
0.14359466E-09
0.13510074E-09
