atomic number =   61
effective nuclear charge =   61
electron count =   48
net charge =   13
basis set = approximate basis set limit (UGBS)      
exchange correlation functional = PW91PW91            
cutoff radius (picometer) =  400
number of shells =   75
prepared by = Thomas A. Manz      
prepared date = July 2010           
net magnetization =    0
density in atomic units:
0.32775469E+05
0.26002353E+03
0.90857773E+02
0.25377590E+02
0.13195224E+02
0.96577511E+01
0.63149543E+01
0.35921612E+01
0.19000975E+01
0.10074624E+01
0.55836219E+00
0.32761908E+00
0.20357288E+00
0.13453977E+00
0.92348963E-01
0.64604998E-01
0.45406025E-01
0.31991728E-01
0.22634266E-01
0.16023241E-01
0.11320475E-01
0.79597374E-02
0.55523030E-02
0.38699943E-02
0.26926787E-02
0.18680088E-02
0.12936648E-02
0.89675299E-03
0.61483495E-03
0.42084447E-03
0.29128295E-03
0.20117786E-03
0.13755675E-03
0.93774397E-04
0.64596854E-04
0.44535464E-04
0.30534371E-04
0.21055064E-04
0.14625831E-04
0.10121805E-04
0.69822763E-05
0.48578522E-05
0.33876527E-05
0.23602402E-05
0.16491701E-05
0.11524460E-05
0.80586443E-06
0.56264560E-06
0.39078779E-06
0.27120726E-06
0.18782680E-06
0.12986403E-06
0.89115666E-07
0.60828093E-07
0.41476639E-07
0.27966113E-07
0.18625242E-07
0.12305971E-07
0.80556877E-08
0.51917004E-08
0.32840519E-08
0.20445916E-08
0.12438124E-08
0.73376949E-09
0.41808962E-09
0.22867672E-09
0.12000897E-09
0.60406277E-10
0.30555034E-10
0.17781948E-10
0.13960605E-10
0.14211848E-10
0.15869689E-10
0.17422961E-10
0.18232344E-10
