atomic number =   91
effective nuclear charge =   91
electron count =   30
net charge =   61
basis set = approximate basis set limit (UGBS)      
exchange correlation functional = PW91PW91            
cutoff radius (picometer) =  300
number of shells =   50
prepared by = Thomas A. Manz      
prepared date = July 2010           
net magnetization =    0
density in atomic units:
0.11567795E+06
0.22249507E+03
0.17967274E+02
0.32546933E+01
0.63082850E+00
0.85170284E-01
0.97106574E-02
0.11820297E-02
0.13402029E-03
0.18010185E-04
0.28127808E-05
0.31238412E-06
0.26685184E-07
0.65370088E-07
0.72900221E-07
0.37971866E-07
0.89694696E-08
0.24258073E-08
0.76921571E-08
0.13037121E-07
0.13390053E-07
0.97973567E-08
0.52766760E-08
0.19404363E-08
0.44937620E-09
0.43860751E-09
0.11222976E-08
0.18182693E-08
0.21956532E-08
0.21595257E-08
0.18104146E-08
0.13096603E-08
0.81598828E-09
0.41995560E-09
0.16689086E-09
0.54004023E-10
0.45392735E-10
0.10095344E-09
0.18362416E-09
0.26150587E-09
0.31681646E-09
0.34286368E-09
0.33914643E-09
0.31124170E-09
0.26680660E-09
0.21472452E-09
0.16132630E-09
0.11242883E-09
0.71677518E-10
0.41016811E-10
