atomic number =   79
effective nuclear charge =   79
electron count =   48
net charge =   31
basis set = approximate basis set limit (UGBS)      
exchange correlation functional = PW91PW91            
cutoff radius (picometer) =  500
number of shells =  100
prepared by = Thomas A. Manz      
prepared date = July 2010           
net magnetization =    0
density in atomic units:
0.52039103E+06
0.54628693E+03
0.93125557E+02
0.36874348E+02
0.21834864E+02
0.10813681E+02
0.46731787E+01
0.19411924E+01
0.91811520E+00
0.48807275E+00
0.27918175E+00
0.16957344E+00
0.10173631E+00
0.59587590E-01
0.35589319E-01
0.21165308E-01
0.12163213E-01
0.70215347E-02
0.40433938E-02
0.22807904E-02
0.12984658E-02
0.74794301E-03
0.42350110E-03
0.23848377E-03
0.13523836E-03
0.76230979E-04
0.42771546E-04
0.24247853E-04
0.13629278E-04
0.77019986E-05
0.44015560E-05
0.24999599E-05
0.14337332E-05
0.82859265E-06
0.47975198E-06
0.27675753E-06
0.15910946E-06
0.91430323E-07
0.52782607E-07
0.30191725E-07
0.17122561E-07
0.96523340E-08
0.53770464E-08
0.30288276E-08
0.17190713E-08
0.99203912E-09
0.61419059E-09
0.42424889E-09
0.32591116E-09
0.27400118E-09
0.24242547E-09
0.21756121E-09
0.19412071E-09
0.17006004E-09
0.14516864E-09
0.12038326E-09
0.96684591E-10
0.75332705E-10
0.57074043E-10
0.42267606E-10
0.30889107E-10
0.22810694E-10
0.17722700E-10
0.15132680E-10
0.14541328E-10
0.15405196E-10
0.17244799E-10
0.19662402E-10
0.22248287E-10
0.24724443E-10
0.26835929E-10
0.28469277E-10
0.29568018E-10
0.30026433E-10
0.29968229E-10
0.29339257E-10
0.28220341E-10
0.26730972E-10
0.24920311E-10
0.22915374E-10
0.20758815E-10
0.18531723E-10
0.16304862E-10
0.14147990E-10
0.12124662E-10
0.10254496E-10
0.85514174E-11
0.70340669E-11
0.57119569E-11
0.45733278E-11
0.36408819E-11
0.28851227E-11
0.22949802E-11
0.18653915E-11
0.15714298E-11
0.13986610E-11
0.13272682E-11
0.13384795E-11
0.14182687E-11
0.15510807E-11
