atomic number =  106
effective nuclear charge =  106
electron count =  100
net charge =    6
basis set = approximate basis set limit (UGBS)      
exchange correlation functional = PW91PW91            
cutoff radius (picometer) =  400
number of shells =   75
prepared by = Thomas A. Manz      
prepared date = July 2010           
net magnetization =    0
density in atomic units:
0.17973753E+06
0.48119220E+03
0.18304077E+03
0.58174900E+02
0.24802334E+02
0.16595497E+02
0.10789014E+02
0.64483800E+01
0.38446581E+01
0.24258776E+01
0.16152775E+01
0.11028028E+01
0.75739598E+00
0.52364206E+00
0.36100036E+00
0.24699399E+00
0.16711934E+00
0.11247559E+00
0.75836219E-01
0.51188495E-01
0.34533251E-01
0.23241937E-01
0.15550060E-01
0.10430316E-01
0.70061097E-02
0.47072060E-02
0.31680583E-02
0.21416089E-02
0.14362095E-02
0.96429721E-03
0.65679918E-03
0.44718970E-03
0.30167672E-03
0.20293966E-03
0.13793848E-03
0.93739305E-04
0.63236774E-04
0.42826850E-04
0.29172010E-04
0.19753701E-04
0.13306832E-04
0.90337644E-05
0.61426567E-05
0.41725630E-05
0.28441191E-05
0.19413058E-05
0.13280802E-05
0.90939767E-06
0.62094387E-06
0.42518531E-06
0.29160449E-06
0.20056686E-06
0.13757064E-06
0.94413629E-07
0.65141286E-07
0.44796035E-07
0.30721637E-07
0.21139135E-07
0.14607787E-07
0.10113620E-07
0.70252515E-08
0.49341127E-08
0.35081100E-08
0.25312892E-08
0.18583596E-08
0.13984107E-08
0.10836102E-08
0.86178303E-09
0.70449691E-09
0.59113431E-09
0.50617366E-09
0.43839068E-09
0.38219186E-09
0.33502090E-09
0.29326064E-09
