atomic number =  106
effective nuclear charge =  106
electron count =   28
net charge =   78
basis set = approximate basis set limit (UGBS)      
exchange correlation functional = PW91PW91            
cutoff radius (picometer) =  400
number of shells =   75
prepared by = Thomas A. Manz      
prepared date = July 2010           
net magnetization =    0
density in atomic units:
0.17713488E+06
0.29572815E+03
0.10992663E+02
0.21777701E+00
0.41628587E-02
0.63560132E-04
0.21728831E-05
0.34081222E-05
0.14885446E-05
0.12386234E-06
0.54681630E-06
0.49842424E-06
0.14494684E-06
0.10573306E-07
0.56085035E-07
0.10042310E-06
0.83454495E-07
0.39399559E-07
0.88056780E-08
0.10359215E-08
0.64002834E-08
0.13637369E-07
0.16525396E-07
0.14390101E-07
0.96720170E-08
0.49114717E-08
0.16510640E-08
0.23468180E-09
0.24411562E-09
0.99810837E-09
0.18435267E-08
0.24311024E-08
0.26185667E-08
0.24194318E-08
0.19777493E-08
0.14333636E-08
0.90259417E-09
0.48033999E-09
0.19861771E-09
0.48341792E-10
0.10719803E-10
0.51458331E-10
0.13374095E-09
0.22774252E-09
0.31023856E-09
0.36872233E-09
0.39790599E-09
0.39797132E-09
0.37333286E-09
0.33072539E-09
0.27761385E-09
0.22100380E-09
0.16549996E-09
0.11586321E-09
0.75040335E-10
0.43248433E-10
0.20844463E-10
0.74385090E-11
0.16220103E-11
0.17632588E-11
0.62612688E-11
0.13484935E-10
0.22102771E-10
0.31043407E-10
0.39339493E-10
0.46360749E-10
0.51698101E-10
0.55226174E-10
0.57004346E-10
0.57022918E-10
0.55493235E-10
0.52714805E-10
0.48924836E-10
0.44431323E-10
0.39569695E-10
