atomic number =   58
effective nuclear charge =   58
electron count =   10
net charge =   48
basis set = approximate basis set limit (UGBS)      
exchange correlation functional = PW91PW91            
cutoff radius (picometer) =  300
number of shells =   50
prepared by = Thomas A. Manz      
prepared date = July 2010           
net magnetization =    0
density in atomic units:
0.26928188E+05
0.40061146E+02
0.52280498E+00
0.47241380E-02
0.49947575E-04
0.75789802E-06
0.25831559E-06
0.13351433E-06
0.10850848E-07
0.48109904E-07
0.31461742E-07
0.37234913E-08
0.24071309E-08
0.78142994E-08
0.74872029E-08
0.34902277E-08
0.60264238E-09
0.10981440E-09
0.74950907E-09
0.13071286E-08
0.13167132E-08
0.92917307E-09
0.46833176E-09
0.14440492E-09
0.13356195E-10
0.29000011E-10
0.10761839E-09
0.18062096E-09
0.21721709E-09
0.21056894E-09
0.17282625E-09
0.12128035E-09
0.72015671E-10
0.33739074E-10
0.10397315E-10
0.11380121E-11
0.19988286E-11
0.87925370E-11
0.17776178E-10
0.25813228E-10
0.31249094E-10
0.33596532E-10
0.32890999E-10
0.29819702E-10
0.25182479E-10
0.19886010E-10
0.14570147E-10
0.98013785E-11
0.59097011E-11
0.30620432E-11
