atomic number =   88
effective nuclear charge =   88
electron count =   36
net charge =   52
basis set = approximate basis set limit (UGBS)      
exchange correlation functional = PW91PW91            
cutoff radius (picometer) =  300
number of shells =   50
prepared by = Thomas A. Manz      
prepared date = July 2010           
net magnetization =    0
density in atomic units:
0.10462084E+06
0.23709048E+03
0.35250877E+02
0.13153196E+02
0.35789342E+01
0.66023463E+00
0.10555544E+00
0.17657982E-01
0.26720599E-02
0.41795548E-03
0.66161156E-04
0.93406661E-05
0.12942262E-05
0.18023660E-06
0.70263894E-07
0.34671018E-07
0.87145891E-08
0.28002369E-08
0.80690965E-08
0.13439919E-07
0.13881473E-07
0.10327318E-07
0.57459495E-08
0.22746698E-08
0.63425232E-09
0.51049598E-09
0.11381931E-08
0.18273378E-08
0.22264255E-08
0.22197910E-08
0.18918751E-08
0.13986990E-08
0.89902352E-09
0.48735871E-09
0.21465799E-09
0.83131328E-10
0.59752502E-10
0.10554481E-09
0.18344953E-09
0.26085073E-09
0.31831712E-09
0.34799202E-09
0.34796879E-09
0.32309674E-09
0.28067790E-09
0.22931344E-09
0.17550765E-09
0.12532785E-09
0.82691937E-10
0.49874542E-10
