atomic number =    8
effective nuclear charge =    8
electron count =    2
net charge =    6
basis set = approximate basis set limit (UGBS)      
exchange correlation functional = PW91PW91            
cutoff radius (picometer) =  300
number of shells =   50
prepared by = Thomas A. Manz      
prepared date = May 2010            
net magnetization =    0
density in atomic units:
0.96214706E+02
0.16780758E+02
0.34140432E+01
0.69469321E+00
0.14585193E+00
0.27501354E-01
0.53061401E-02
0.11632440E-02
0.24562964E-03
0.52788368E-04
0.10994407E-04
0.21749793E-05
0.49723002E-06
0.11658475E-06
0.28820430E-07
0.71402200E-08
0.15157557E-08
0.25871535E-09
0.17925553E-10
0.79431435E-11
0.18846862E-10
0.17251013E-10
0.94139913E-11
0.29508767E-11
0.57695781E-12
0.14645461E-11
0.36487831E-11
0.54600248E-11
0.62168539E-11
0.58283265E-11
0.46708748E-11
0.32137292E-11
0.18752701E-11
0.86908903E-12
0.28253566E-12
0.73942561E-13
0.13120573E-12
0.33657422E-12
0.58818201E-12
0.80368096E-12
0.94155001E-12
0.99085421E-12
0.95591243E-12
0.85709190E-12
0.71751752E-12
0.56269063E-12
0.41006044E-12
0.27490323E-12
0.16600221E-12
0.87360010E-13
