atomic number =   75
effective nuclear charge =   75
electron count =   48
net charge =   27
basis set = approximate basis set limit (UGBS)      
exchange correlation functional = PW91PW91            
cutoff radius (picometer) =  500
number of shells =  100
prepared by = Thomas A. Manz      
prepared date = July 2010           
net magnetization =    0
density in atomic units:
0.44106897E+06
0.51089355E+03
0.99888054E+02
0.32592358E+02
0.21110647E+02
0.11854356E+02
0.56406384E+01
0.24612091E+01
0.11609118E+01
0.60498416E+00
0.34539175E+00
0.21544375E+00
0.13603988E+00
0.85358918E-01
0.54866165E-01
0.35196222E-01
0.21924114E-01
0.13685449E-01
0.84957667E-02
0.51647509E-02
0.31559970E-02
0.19434377E-02
0.11773324E-02
0.70948235E-03
0.43036963E-03
0.25997905E-03
0.15670889E-03
0.95479925E-04
0.57831818E-04
0.35232231E-04
0.21675574E-04
0.13258947E-04
0.81674934E-05
0.50507974E-05
0.31186860E-05
0.19122999E-05
0.11647735E-05
0.70590028E-06
0.42746430E-06
0.25542099E-06
0.15056143E-06
0.87623341E-07
0.49904479E-07
0.28224997E-07
0.15589771E-07
0.82759275E-08
0.42921466E-08
0.22109239E-08
0.11196853E-08
0.58269484E-09
0.33183820E-09
0.21792773E-09
0.16483069E-09
0.13418572E-09
0.10972039E-09
0.86474147E-10
0.64058404E-10
0.44106576E-10
0.28225897E-10
0.17456543E-10
0.12053288E-10
0.11785850E-10
0.15906502E-10
0.23411358E-10
0.33173884E-10
0.43877943E-10
0.54681853E-10
0.64832327E-10
0.73569158E-10
0.80463559E-10
0.85210193E-10
0.87624789E-10
0.88163185E-10
0.86671580E-10
0.83348474E-10
0.78607718E-10
0.72904294E-10
0.66357558E-10
0.59362161E-10
0.52205431E-10
0.45050061E-10
0.38095044E-10
0.31525341E-10
0.25502912E-10
0.20154173E-10
0.15496899E-10
0.11492911E-10
0.81561303E-11
0.54825727E-11
0.34007341E-11
0.19064034E-11
0.91520986E-12
0.36656032E-12
0.20419318E-12
0.35721057E-12
0.76529451E-12
0.13632662E-11
0.21088211E-11
0.29541272E-11
0.38436294E-11
