atomic number =   92
effective nuclear charge =   92
electron count =   60
net charge =   32
basis set = approximate basis set limit (UGBS)      
exchange correlation functional = PW91PW91            
cutoff radius (picometer) =  300
number of shells =   50
prepared by = Thomas A. Manz      
prepared date = July 2010           
net magnetization =    0
density in atomic units:
0.11966321E+06
0.30296680E+03
0.10347446E+03
0.41850220E+02
0.11924072E+02
0.26148565E+01
0.56019258E+00
0.13452184E+00
0.31090293E-01
0.75449427E-02
0.18762384E-02
0.45350686E-03
0.11835941E-03
0.29480225E-04
0.75158118E-05
0.20408590E-05
0.56689760E-06
0.17552219E-06
0.59437539E-07
0.27958265E-07
0.18095479E-07
0.12044462E-07
0.69199979E-08
0.31946763E-08
0.12709940E-08
0.86597340E-09
0.12842730E-08
0.18619588E-08
0.22289388E-08
0.22418214E-08
0.19526250E-08
0.14948401E-08
0.10150618E-08
0.60559874E-09
0.32055614E-09
0.16817038E-09
0.12127588E-09
0.14500219E-09
0.20503245E-09
0.27034822E-09
0.32129002E-09
0.34871109E-09
0.34971437E-09
0.32772252E-09
0.28875161E-09
0.24051952E-09
0.18912605E-09
0.14029225E-09
0.97935958E-10
0.64480893E-10
