atomic number =   80
effective nuclear charge =   80
electron count =   18
net charge =   62
basis set = approximate basis set limit (UGBS)      
exchange correlation functional = PW91PW91            
cutoff radius (picometer) =  300
number of shells =   50
prepared by = Thomas A. Manz      
prepared date = July 2010           
net magnetization =    0
density in atomic units:
0.77034133E+05
0.11334553E+03
0.12861105E+02
0.65219110E+00
0.27337907E-01
0.81412232E-03
0.19351301E-04
0.11044594E-05
0.63706544E-07
0.19180651E-06
0.13005577E-06
0.17455333E-07
0.92138670E-08
0.30413375E-07
0.30019248E-07
0.14577496E-07
0.28848242E-08
0.54895000E-09
0.28770455E-08
0.50907492E-08
0.52254414E-08
0.37718317E-08
0.19706923E-08
0.66427219E-09
0.10221610E-09
0.12556180E-09
0.41479906E-09
0.69870287E-09
0.84970159E-09
0.83388335E-09
0.69408407E-09
0.49587301E-09
0.30240149E-09
0.14899271E-09
0.52647778E-10
0.11499893E-10
0.10886826E-10
0.34783069E-10
0.68545586E-10
0.99729627E-10
0.12157873E-09
0.13168383E-09
0.12992994E-09
0.11876486E-09
0.10123630E-09
0.80814813E-10
0.60053393E-10
0.41198236E-10
0.25596709E-10
0.13994092E-10
