atomic number =  105
effective nuclear charge =  105
electron count =   60
net charge =   45
basis set = approximate basis set limit (UGBS)      
exchange correlation functional = PW91PW91            
cutoff radius (picometer) =  300
number of shells =   50
prepared by = Thomas A. Manz      
prepared date = July 2010           
net magnetization =    0
density in atomic units:
0.17453673E+06
0.34017227E+03
0.11773731E+03
0.27816408E+02
0.47084489E+01
0.60213745E+00
0.75430505E-01
0.11709495E-01
0.16864653E-02
0.23595330E-03
0.34604574E-04
0.55612968E-05
0.11431725E-05
0.31646431E-06
0.15245915E-06
0.74037196E-07
0.23115525E-07
0.62239480E-08
0.95116111E-08
0.16924933E-07
0.19228535E-07
0.15805718E-07
0.99824264E-08
0.48457789E-08
0.18488899E-08
0.98010999E-09
0.14136374E-08
0.22265794E-08
0.28469587E-08
0.30069016E-08
0.27264651E-08
0.21664466E-08
0.15252590E-08
0.94269526E-09
0.50990839E-09
0.25474176E-09
0.15092166E-09
0.15606764E-09
0.22483337E-09
0.31340686E-09
0.39111966E-09
0.44222276E-09
0.45836421E-09
0.44204637E-09
0.40002554E-09
0.34171665E-09
0.27550101E-09
0.20978919E-09
0.15039271E-09
0.10155628E-09
