atomic number =  105
effective nuclear charge =  105
electron count =    4
net charge =  101
basis set = approximate basis set limit (UGBS)      
exchange correlation functional = PW91PW91            
cutoff radius (picometer) =  300
number of shells =   50
prepared by = Thomas A. Manz      
prepared date = July 2010           
net magnetization =    0
density in atomic units:
0.16572520E+06
0.18558565E+00
0.22007622E-03
0.53091597E-04
0.11982312E-04
0.32294090E-05
0.22939707E-05
0.12138129E-05
0.91265036E-07
0.41195179E-06
0.27564366E-06
0.33562284E-07
0.19481735E-07
0.66032690E-07
0.64063421E-07
0.30118247E-07
0.52558358E-08
0.84247537E-09
0.62230967E-08
0.11005594E-07
0.11145834E-07
0.78905220E-08
0.39868908E-08
0.12303774E-08
0.10751584E-09
0.23185343E-09
0.89492308E-09
0.15141757E-08
0.18271340E-08
0.17740781E-08
0.14572156E-08
0.10230105E-08
0.60735506E-09
0.28410746E-09
0.86791213E-10
0.83899528E-11
0.15466357E-10
0.72702011E-10
0.14846810E-09
0.21630982E-09
0.26236116E-09
0.28222169E-09
0.27641045E-09
0.25057006E-09
0.21156500E-09
0.16701132E-09
0.12229869E-09
0.82189519E-10
0.49462174E-10
0.25519751E-10
