atomic number =   80
effective nuclear charge =   80
electron count =   48
net charge =   32
basis set = approximate basis set limit (UGBS)      
exchange correlation functional = PW91PW91            
cutoff radius (picometer) =  300
number of shells =   50
prepared by = Thomas A. Manz      
prepared date = July 2010           
net magnetization =    0
density in atomic units:
0.78146609E+05
0.25062827E+03
0.49859562E+02
0.27525818E+02
0.11970743E+02
0.39878292E+01
0.14180779E+01
0.63253486E+00
0.31538406E+00
0.16807581E+00
0.88300169E-01
0.44981521E-01
0.23546815E-01
0.11963361E-01
0.60480731E-02
0.30172104E-02
0.14766681E-02
0.74540515E-03
0.36879405E-03
0.18129803E-03
0.89004956E-04
0.43460193E-04
0.21296704E-04
0.10429729E-04
0.50860440E-05
0.24806332E-05
0.12174301E-05
0.61247835E-06
0.30620058E-06
0.15305262E-06
0.77493482E-07
0.39150798E-07
0.19910761E-07
0.10065029E-07
0.50720486E-08
0.25955134E-08
0.13683812E-08
0.76914608E-09
0.48617715E-09
0.36121214E-09
0.30483957E-09
0.27276811E-09
0.24668950E-09
0.21878811E-09
0.18737865E-09
0.15439908E-09
0.12170288E-09
0.91764013E-10
0.66195924E-10
0.46094940E-10
