atomic number =   13
effective nuclear charge =   13
electron count =    2
net charge =   11
basis set = approximate basis set limit (UGBS)      
exchange correlation functional = PW91PW91            
cutoff radius (picometer) =  300
number of shells =   50
prepared by = Thomas A. Manz      
prepared date = May 2010            
net magnetization =    0
density in atomic units:
0.28554962E+03
0.14301533E+02
0.10573288E+01
0.78258127E-01
0.62040202E-02
0.40576089E-03
0.27412219E-04
0.23713751E-05
0.16694186E-06
0.90827346E-08
0.40454218E-09
0.69493168E-10
0.83022443E-10
0.85078569E-10
0.54162425E-10
0.18685723E-10
0.17047758E-11
0.21764465E-11
0.81334314E-11
0.11470595E-10
0.10320555E-10
0.66551916E-11
0.30147423E-11
0.75305392E-12
0.45424991E-13
0.38707622E-12
0.10901872E-11
0.16499190E-11
0.18721511E-11
0.17426720E-11
0.13831498E-11
0.93821077E-12
0.53425629E-12
0.23407594E-12
0.61736721E-13
0.40015886E-14
0.25245966E-13
0.90122266E-13
0.16802309E-12
0.23412302E-12
0.27630697E-12
0.29146217E-12
0.28119312E-12
0.25170675E-12
0.21004352E-12
0.16389364E-12
0.11848100E-12
0.78382898E-13
0.46171698E-13
0.23030914E-13
