atomic number =   94
effective nuclear charge =   94
electron count =   46
net charge =   48
basis set = approximate basis set limit (UGBS)      
exchange correlation functional = PW91PW91            
cutoff radius (picometer) =  300
number of shells =   50
prepared by = Thomas A. Manz      
prepared date = July 2010           
net magnetization =    0
density in atomic units:
0.12748010E+06
0.24277965E+03
0.66770737E+02
0.25187618E+02
0.60386324E+01
0.10169314E+01
0.15690111E+00
0.26463347E-01
0.39966954E-02
0.61499549E-03
0.10067772E-03
0.16589871E-04
0.29959783E-05
0.49200662E-06
0.10828102E-06
0.40230649E-07
0.13299950E-07
0.55470322E-08
0.84004439E-08
0.12699449E-07
0.13364100E-07
0.10514521E-07
0.64806609E-08
0.31822960E-08
0.14010419E-08
0.98735475E-09
0.13316628E-08
0.18310836E-08
0.21437254E-08
0.21370785E-08
0.18574796E-08
0.14264033E-08
0.97731878E-09
0.59465954E-09
0.32749334E-09
0.18321904E-09
0.13666504E-09
0.15553310E-09
0.20814814E-09
0.26596358E-09
0.31079786E-09
0.33434816E-09
0.33347444E-09
0.31174230E-09
0.27457053E-09
0.22905372E-09
0.18078133E-09
0.13500789E-09
0.95297145E-10
0.63879665E-10
