atomic number =   71
effective nuclear charge =   71
electron count =   48
net charge =   23
basis set = approximate basis set limit (UGBS)      
exchange correlation functional = PW91PW91            
cutoff radius (picometer) =  500
number of shells =  100
prepared by = Thomas A. Manz      
prepared date = July 2010           
net magnetization =    0
density in atomic units:
0.36969059E+06
0.47357220E+03
0.10778361E+03
0.29399305E+02
0.19400106E+02
0.12330009E+02
0.65366583E+01
0.30717053E+01
0.14835068E+01
0.76118666E+00
0.42387706E+00
0.26278737E+00
0.16960517E+00
0.11164143E+00
0.76311462E-01
0.52488558E-01
0.35360444E-01
0.23891920E-01
0.16057059E-01
0.10598158E-01
0.70207892E-02
0.46771844E-02
0.30727240E-02
0.20095350E-02
0.13212760E-02
0.86520647E-03
0.56514068E-03
0.37196171E-03
0.24316620E-03
0.15944021E-03
0.10514972E-03
0.68854199E-04
0.45267530E-04
0.29816609E-04
0.19602074E-04
0.12813131E-04
0.83416508E-05
0.54251250E-05
0.35425444E-05
0.23015814E-05
0.14912033E-05
0.96569488E-06
0.62252184E-06
0.40492520E-06
0.26287387E-06
0.16864180E-06
0.10855189E-06
0.70546101E-07
0.45582521E-07
0.29468037E-07
0.19101872E-07
0.12365541E-07
0.80710363E-08
0.53196358E-08
0.35276571E-08
0.23513933E-08
0.15814021E-08
0.10778692E-08
0.74767237E-09
0.52872351E-09
0.38153000E-09
0.28165148E-09
0.21442838E-09
0.16812228E-09
0.13648010E-09
0.11509183E-09
0.10042566E-09
0.90238837E-10
0.83184626E-10
0.78073263E-10
0.74232495E-10
0.70979174E-10
0.68017689E-10
0.64899058E-10
0.61622339E-10
0.57996018E-10
0.54175518E-10
0.50049943E-10
0.45801890E-10
0.41461435E-10
0.37086698E-10
0.32752009E-10
0.28564784E-10
0.24592094E-10
0.20932823E-10
0.17610547E-10
0.14611330E-10
0.11981032E-10
0.97023414E-11
0.77692080E-11
0.62066316E-11
0.49583285E-11
0.40046248E-11
0.33276955E-11
0.28951988E-11
0.26643503E-11
0.26129255E-11
0.27006218E-11
0.28980345E-11
0.31879850E-11
