atomic number =   90
effective nuclear charge =   90
electron count =   68
net charge =   22
basis set = approximate basis set limit (UGBS)      
exchange correlation functional = PW91PW91            
cutoff radius (picometer) =  300
number of shells =   50
prepared by = Thomas A. Manz      
prepared date = July 2010           
net magnetization =    0
density in atomic units:
0.11230176E+06
0.30158466E+03
0.10287433E+03
0.43433609E+02
0.14749874E+02
0.57434778E+01
0.28846064E+01
0.15375262E+01
0.75900394E+00
0.35697880E+00
0.15744473E+00
0.66022612E-01
0.28745266E-01
0.12052636E-01
0.49924939E-02
0.20279663E-02
0.80014858E-03
0.33120488E-03
0.13549527E-03
0.56002835E-04
0.23508270E-04
0.98992041E-05
0.41764215E-05
0.17315460E-05
0.69082012E-06
0.26224060E-06
0.94110341E-07
0.32844603E-07
0.11194734E-07
0.44105088E-08
0.24554729E-08
0.17102287E-08
0.11974233E-08
0.74428186E-09
0.39581138E-09
0.19477628E-09
0.13252865E-09
0.17480214E-09
0.27752356E-09
0.39406708E-09
0.49231774E-09
0.55541821E-09
0.57483218E-09
0.55449895E-09
0.50266957E-09
0.43085163E-09
0.34916686E-09
0.26769911E-09
0.19365257E-09
0.13218272E-09
