atomic number =   74
effective nuclear charge =   74
electron count =   28
net charge =   46
basis set = approximate basis set limit (UGBS)      
exchange correlation functional = PW91PW91            
cutoff radius (picometer) =  400
number of shells =   75
prepared by = Thomas A. Manz      
prepared date = July 2010           
net magnetization =    0
density in atomic units:
0.60534559E+05
0.31891803E+03
0.67971207E+02
0.83975792E+01
0.80100715E+00
0.60592413E-01
0.43412731E-02
0.33315024E-03
0.26234733E-04
0.25320089E-05
0.35540901E-06
0.15549192E-06
0.46424834E-07
0.61945582E-08
0.18546604E-07
0.31366167E-07
0.26204617E-07
0.12815002E-07
0.33531409E-08
0.77937462E-09
0.22560989E-08
0.43809325E-08
0.52318927E-08
0.45676427E-08
0.31114289E-08
0.16325258E-08
0.60736366E-09
0.14802654E-09
0.13080642E-09
0.34922490E-09
0.60223981E-09
0.77984202E-09
0.83637752E-09
0.77404910E-09
0.63650368E-09
0.46638188E-09
0.29960220E-09
0.16584230E-09
0.75519403E-10
0.26060792E-10
0.11938283E-10
0.22730512E-10
0.46989947E-10
0.75378384E-10
0.10060359E-09
0.11865740E-09
0.12770787E-09
0.12776295E-09
0.12013211E-09
0.10681397E-09
0.90164147E-10
0.72303767E-10
0.54760200E-10
0.38959665E-10
0.25892856E-10
0.15617369E-10
0.82834139E-11
0.37904029E-11
0.17060339E-11
0.15260150E-11
0.27531668E-11
0.48798244E-11
0.74819231E-11
0.10214907E-10
0.12780279E-10
0.14964491E-10
0.16646844E-10
0.17776947E-10
0.18352795E-10
0.18371990E-10
0.17900658E-10
0.17043426E-10
0.15864018E-10
0.14452520E-10
0.12916499E-10
