atomic number =   52
effective nuclear charge =   52
electron count =   48
net charge =    4
basis set = approximate basis set limit (UGBS)      
exchange correlation functional = PW91PW91            
cutoff radius (picometer) =  500
number of shells =  100
prepared by = Thomas A. Manz      
prepared date = July 2010           
net magnetization =    0
density in atomic units:
0.13274375E+06
0.32148340E+03
0.99862457E+02
0.37941059E+02
0.12339296E+02
0.66558976E+01
0.51426239E+01
0.41258674E+01
0.31208150E+01
0.21982226E+01
0.14789081E+01
0.99215710E+00
0.65276414E+00
0.42763826E+00
0.29164606E+00
0.20366533E+00
0.14312048E+00
0.10378678E+00
0.77038988E-01
0.57889204E-01
0.44546463E-01
0.34944326E-01
0.27517417E-01
0.21805007E-01
0.17430998E-01
0.13954194E-01
0.11183701E-01
0.90088183E-02
0.72356262E-02
0.58227438E-02
0.46979268E-02
0.37772211E-02
0.30431421E-02
0.24541004E-02
0.19777187E-02
0.15893546E-02
0.12752875E-02
0.10232617E-02
0.82317600E-03
0.66064112E-03
0.52989047E-03
0.42492352E-03
0.34012008E-03
0.27357953E-03
0.21983225E-03
0.17558389E-03
0.14055234E-03
0.11300679E-03
0.90559726E-04
0.72578616E-04
0.58157020E-04
0.46550602E-04
0.37380487E-04
0.30084906E-04
0.24200979E-04
0.19455847E-04
0.15623882E-04
0.12555235E-04
0.10101718E-04
0.81395974E-05
0.65570712E-05
0.52830555E-05
0.42624933E-05
0.34379595E-05
0.27719022E-05
0.22423524E-05
0.18139208E-05
0.14633656E-05
0.11807259E-05
0.95178063E-06
0.76920855E-06
0.62171898E-06
0.50195473E-06
0.40576998E-06
0.32733161E-06
0.26392757E-06
0.21284501E-06
0.17147340E-06
0.13820410E-06
0.11154178E-06
0.89802718E-07
0.72181621E-07
0.57955713E-07
0.46512625E-07
0.37387302E-07
0.30070751E-07
0.24145344E-07
0.19377238E-07
0.15536768E-07
0.12419109E-07
0.99426058E-08
0.79449007E-08
0.63297296E-08
0.50497913E-08
0.40194186E-08
0.31930605E-08
0.25379630E-08
0.20101134E-08
0.15867835E-08
0.12515127E-08
