atomic number =   86
effective nuclear charge =   86
electron count =   46
net charge =   40
basis set = approximate basis set limit (UGBS)      
exchange correlation functional = PW91PW91            
cutoff radius (picometer) =  300
number of shells =   50
prepared by = Thomas A. Manz      
prepared date = July 2010           
net magnetization =    0
density in atomic units:
0.97622680E+05
0.24887961E+03
0.56105446E+02
0.28147936E+02
0.95457029E+01
0.22928362E+01
0.49710158E+00
0.11344908E+00
0.24147576E-01
0.52704974E-02
0.11345487E-02
0.22614870E-03
0.48222366E-04
0.97589436E-05
0.20810933E-05
0.50306932E-06
0.12881115E-06
0.39966014E-07
0.19357223E-07
0.16008537E-07
0.13614921E-07
0.94619059E-08
0.50779940E-08
0.19555177E-08
0.56212474E-09
0.53192356E-09
0.11430806E-08
0.17721692E-08
0.21133950E-08
0.20767685E-08
0.17500645E-08
0.12806989E-08
0.81449919E-09
0.43637099E-09
0.19007892E-09
0.74976705E-10
0.58918828E-10
0.10509272E-09
0.17907628E-09
0.25083274E-09
0.30290817E-09
0.32862654E-09
0.32658626E-09
0.30160544E-09
0.26072897E-09
0.21205132E-09
0.16152692E-09
0.11474996E-09
0.75257113E-10
0.45087423E-10
