atomic number =   22
effective nuclear charge =   22
electron count =   12
net charge =   10
basis set = approximate basis set limit (UGBS)      
exchange correlation functional = PW91PW91            
cutoff radius (picometer) =  500
number of shells =  100
prepared by = Thomas A. Manz      
prepared date = July 2010           
net magnetization =    0
density in atomic units:
0.80020273E+04
0.90278755E+02
0.37215530E+02
0.13667463E+02
0.44451833E+01
0.17151574E+01
0.78651881E+00
0.46716684E+00
0.33857587E+00
0.25414222E+00
0.18713091E+00
0.13598381E+00
0.95041677E-01
0.64282477E-01
0.43739557E-01
0.29511146E-01
0.19357642E-01
0.12722256E-01
0.83263051E-02
0.53576319E-02
0.34691205E-02
0.22645304E-02
0.14590655E-02
0.93677320E-03
0.60528971E-03
0.38964598E-03
0.25021491E-03
0.16198034E-03
0.10413043E-03
0.67149173E-04
0.43571425E-04
0.28070745E-04
0.18167300E-04
0.11788376E-04
0.76406041E-05
0.49287942E-05
0.31710028E-05
0.20419009E-05
0.13233528E-05
0.85577386E-06
0.55372732E-06
0.35958288E-06
0.23351667E-06
0.15376787E-06
0.10159793E-06
0.66749557E-07
0.44245983E-07
0.29740876E-07
0.19968056E-07
0.13452872E-07
0.90933705E-08
0.61387171E-08
0.41646553E-08
0.28297782E-08
0.19112263E-08
0.12796514E-08
0.84551310E-09
0.55089827E-09
0.35256931E-09
0.22039140E-09
0.13296225E-09
0.76421917E-10
0.41192178E-10
0.20009751E-10
0.81654371E-11
0.24255496E-11
0.33599444E-12
0.37608778E-12
0.15449034E-11
0.31666770E-11
0.47958716E-11
0.62118249E-11
0.72985264E-11
0.80094464E-11
0.83610584E-11
0.83879735E-11
0.81434044E-11
0.76797544E-11
0.70685398E-11
0.63592929E-11
0.55846786E-11
0.47861159E-11
0.40188009E-11
0.32978687E-11
0.26344116E-11
0.20499509E-11
0.15469567E-11
0.11186905E-11
0.77640016E-12
0.50574486E-12
0.31181161E-12
0.18158620E-12
0.10841555E-12
0.85477679E-13
0.10370272E-12
0.15509894E-12
0.23149692E-12
0.32717305E-12
0.43577625E-12
0.55093332E-12
