atomic number =   40
effective nuclear charge =   40
electron count =    4
net charge =   36
basis set = approximate basis set limit (UGBS)      
exchange correlation functional = PW91PW91            
cutoff radius (picometer) =  500
number of shells =  100
prepared by = Thomas A. Manz      
prepared date = July 2010           
net magnetization =    0
density in atomic units:
0.54674746E+05
0.55792763E+02
0.75885935E+01
0.61058223E+00
0.37981611E-01
0.34253774E-02
0.28228841E-03
0.17616536E-04
0.12224314E-05
0.11101373E-06
0.14204129E-07
0.87800531E-08
0.49605866E-08
0.10389070E-08
0.10254258E-09
0.73101059E-09
0.12178705E-08
0.10354685E-08
0.54300209E-09
0.14694423E-09
0.91111476E-11
0.47421955E-10
0.13778850E-09
0.19503049E-09
0.19396280E-09
0.15044904E-09
0.92313109E-10
0.43150983E-10
0.12226549E-10
0.91194858E-12
0.34689504E-11
0.12762091E-10
0.22660863E-10
0.29513180E-10
0.31985841E-10
0.30271841E-10
0.25543411E-10
0.19346512E-10
0.13135092E-10
0.77355344E-11
0.37232071E-11
0.12513460E-11
0.15564045E-12
0.13508155E-12
0.80463907E-12
0.18473545E-11
0.29370254E-11
0.38577375E-11
0.45197431E-11
0.48583160E-11
0.48774504E-11
0.46216555E-11
0.41648182E-11
0.35825511E-11
0.29377742E-11
0.22893085E-11
0.16820117E-11
0.11548798E-11
0.72752920E-12
0.40587027E-12
0.18490735E-12
0.55693877E-13
0.49340249E-14
0.15778265E-13
0.71947175E-13
0.15614163E-12
0.25557283E-12
0.35980415E-12
0.45816633E-12
0.54437043E-12
0.61227466E-12
0.66105265E-12
0.68992511E-12
0.69976365E-12
0.69136678E-12
0.66831604E-12
0.63207133E-12
0.58636743E-12
0.53358582E-12
0.47724655E-12
0.41855625E-12
0.35978520E-12
0.30300990E-12
0.24975004E-12
0.20138146E-12
0.15830075E-12
0.12054570E-12
0.88418463E-13
0.61826697E-13
0.40401639E-13
0.24240668E-13
0.12605778E-13
0.50168182E-14
0.10752013E-14
0.14078098E-15
0.17000068E-14
0.52117645E-14
0.10251806E-13
0.16404577E-13
0.23204119E-13
