atomic number =   93
effective nuclear charge =   93
electron count =   86
net charge =    7
basis set = approximate basis set limit (UGBS)      
exchange correlation functional = PW91PW91            
cutoff radius (picometer) =  300
number of shells =   50
prepared by = Thomas A. Manz      
prepared date = July 2010           
net magnetization =    0
density in atomic units:
0.12390954E+06
0.31365762E+03
0.11391293E+03
0.41851631E+02
0.14969033E+02
0.80086756E+01
0.49827790E+01
0.30002880E+01
0.17262479E+01
0.10342330E+01
0.66362572E+00
0.46225119E+00
0.34870800E+00
0.26767772E+00
0.20712209E+00
0.15878117E+00
0.12018643E+00
0.91255441E-01
0.68234824E-01
0.50594565E-01
0.37332069E-01
0.27396977E-01
0.20088842E-01
0.14683184E-01
0.10681554E-01
0.77429744E-02
0.56099324E-02
0.40922691E-02
0.29644652E-02
0.21412459E-02
0.15525187E-02
0.11235985E-02
0.81639277E-03
0.59238903E-03
0.43017359E-03
0.31420961E-03
0.23030672E-03
0.16865903E-03
0.12301865E-03
0.90105226E-04
0.66235269E-04
0.48405702E-04
0.35478279E-04
0.26037509E-04
0.19048412E-04
0.13957079E-04
0.10195298E-04
0.74343334E-05
0.54138081E-05
0.39476463E-05
