atomic number =   93
effective nuclear charge =   93
electron count =   36
net charge =   57
basis set = approximate basis set limit (UGBS)      
exchange correlation functional = PW91PW91            
cutoff radius (picometer) =  300
number of shells =   50
prepared by = Thomas A. Manz      
prepared date = July 2010           
net magnetization =    0
density in atomic units:
0.12344630E+06
0.22851404E+03
0.36172085E+02
0.11744566E+02
0.25319235E+01
0.36526418E+00
0.46217650E-01
0.62656836E-02
0.74114226E-03
0.90914604E-04
0.12503813E-04
0.16919680E-05
0.24106657E-06
0.86111314E-07
0.74211378E-07
0.40497870E-07
0.10959051E-07
0.29744618E-08
0.74718125E-08
0.12849227E-07
0.13530560E-07
0.10171815E-07
0.56818683E-08
0.22351889E-08
0.59468802E-09
0.46745902E-09
0.10941540E-08
0.17838584E-08
0.21835302E-08
0.21776572E-08
0.18515427E-08
0.13619524E-08
0.86748320E-09
0.46236734E-09
0.19632743E-09
0.70565609E-10
0.51551860E-10
0.10009439E-09
0.17921677E-09
0.25657274E-09
0.31327566E-09
0.34191197E-09
0.34075795E-09
0.31516389E-09
0.27250630E-09
0.22134380E-09
0.16814286E-09
0.11887774E-09
0.77286177E-10
0.45576438E-10
