atomic number =   57
effective nuclear charge =   57
electron count =   54
net charge =    3
basis set = approximate basis set limit (UGBS)      
exchange correlation functional = PW91PW91            
cutoff radius (picometer) =  500
number of shells =  100
prepared by = Thomas A. Manz      
prepared date = July 2010           
net magnetization =    0
density in atomic units:
0.17993962E+06
0.35553070E+03
0.11489031E+03
0.33553150E+02
0.12498914E+02
0.93028278E+01
0.72233315E+01
0.49018865E+01
0.30919785E+01
0.18759705E+01
0.11528044E+01
0.76779604E+00
0.54663652E+00
0.41584814E+00
0.33689269E+00
0.27924332E+00
0.23071000E+00
0.19073075E+00
0.15642533E+00
0.12635778E+00
0.10162021E+00
0.81466310E-01
0.64476468E-01
0.50657406E-01
0.39754543E-01
0.31001432E-01
0.24059765E-01
0.18696290E-01
0.14428555E-01
0.11130231E-01
0.85973535E-02
0.66039721E-02
0.50807414E-02
0.39122161E-02
0.30096180E-02
0.23082779E-02
0.17681791E-02
0.13556003E-02
0.10437212E-02
0.80234022E-03
0.61712123E-03
0.47522489E-03
0.36562694E-03
0.28328248E-03
0.21943054E-03
0.16895426E-03
0.13048780E-03
0.10134077E-03
0.78424127E-04
0.60671617E-04
0.46929035E-04
0.36217662E-04
0.28032722E-04
0.21733546E-04
0.16819471E-04
0.12992494E-04
0.10008283E-04
0.77055211E-05
0.59324461E-05
0.45687243E-05
0.35130809E-05
0.26975315E-05
0.20722159E-05
0.15889516E-05
0.12158665E-05
0.93352060E-06
0.71534714E-06
0.54584820E-06
0.41553102E-06
0.31563241E-06
0.24003009E-06
0.18237095E-06
0.13811712E-06
0.10457684E-06
0.78798749E-07
0.59200072E-07
0.44381537E-07
0.33145241E-07
0.24708736E-07
0.18413449E-07
0.13649450E-07
0.10076002E-07
0.74182465E-08
0.54545723E-08
0.40149457E-08
0.29631866E-08
0.21850179E-08
0.16175089E-08
0.12029333E-08
0.89908775E-09
0.68223882E-09
0.52484173E-09
0.41072401E-09
0.32988470E-09
0.27198435E-09
0.23089654E-09
0.20248794E-09
0.18289374E-09
0.17001783E-09
0.16217912E-09
