atomic number =   98
effective nuclear charge =   98
electron count =   36
net charge =   62
basis set = approximate basis set limit (UGBS)      
exchange correlation functional = PW91PW91            
cutoff radius (picometer) =  300
number of shells =   50
prepared by = Thomas A. Manz      
prepared date = July 2010           
net magnetization =    0
density in atomic units:
0.14377347E+06
0.21774617E+03
0.36874073E+02
0.98662615E+01
0.16790996E+01
0.18800476E+00
0.18772803E-01
0.21049913E-02
0.19560762E-03
0.17378086E-04
0.19117558E-05
0.23642339E-06
0.57926410E-07
0.80184705E-07
0.74630599E-07
0.36633324E-07
0.77880760E-08
0.16151039E-08
0.69795552E-08
0.12315724E-07
0.12720220E-07
0.92656629E-08
0.49145252E-08
0.17190717E-08
0.31084441E-09
0.32740408E-09
0.10050525E-08
0.16861437E-08
0.20559938E-08
0.20259237E-08
0.16947532E-08
0.12193665E-08
0.75173462E-09
0.37793893E-09
0.14066839E-09
0.36646547E-10
0.31271267E-10
0.86179154E-10
0.16610111E-09
0.24087513E-09
0.29379219E-09
0.31871919E-09
0.31530678E-09
0.28903624E-09
0.24721006E-09
0.19821583E-09
0.14811377E-09
0.10240538E-09
0.64425985E-10
0.35988722E-10
