atomic number =  106
effective nuclear charge =  106
electron count =   62
net charge =   44
basis set = approximate basis set limit (UGBS)      
exchange correlation functional = PW91PW91            
cutoff radius (picometer) =  500
number of shells =  100
prepared by = Thomas A. Manz      
prepared date = July 2010           
net magnetization =    0
density in atomic units:
0.12472592E+07
0.77111200E+03
0.20338866E+03
0.67472015E+02
0.16041712E+02
0.48088408E+01
0.15583162E+01
0.50010961E+00
0.16852254E+00
0.55727072E-01
0.17311467E-01
0.54817614E-02
0.16561357E-02
0.47585508E-03
0.15007582E-03
0.50650269E-04
0.16887812E-04
0.58657251E-05
0.19949061E-05
0.57540797E-06
0.12626117E-06
0.18245187E-07
0.14365076E-07
0.29910002E-07
0.36631658E-07
0.32320617E-07
0.22310925E-07
0.12343669E-07
0.52727080E-08
0.20439079E-08
0.18421465E-08
0.33107344E-08
0.51875109E-08
0.66265806E-08
0.72504078E-08
0.70197843E-08
0.61193832E-08
0.48448987E-08
0.35028136E-08
0.22784838E-08
0.13172086E-08
0.67165196E-09
0.32454056E-09
0.22706903E-09
0.30024644E-09
0.47714044E-09
0.68765321E-09
0.88005359E-09
0.10293645E-08
0.11164163E-08
0.11372687E-08
0.10973801E-08
0.10106729E-08
0.89145136E-09
0.75364237E-09
0.60971889E-09
0.47072218E-09
0.34585099E-09
0.24078997E-09
0.15782384E-09
0.96788737E-10
0.56517697E-10
0.34750133E-10
0.28093116E-10
0.33176312E-10
0.46318709E-10
0.64505172E-10
0.85246595E-10
0.10600544E-09
0.12510167E-09
0.14104375E-09
0.15316409E-09
0.16139612E-09
0.16532561E-09
0.16526536E-09
0.16137441E-09
0.15481204E-09
0.14547931E-09
0.13445560E-09
0.12224163E-09
0.10911677E-09
0.95728939E-10
0.82474721E-10
0.69816201E-10
0.58069889E-10
0.47408400E-10
0.37810255E-10
0.29464053E-10
0.22347877E-10
0.16392655E-10
0.11690753E-10
0.80638864E-11
0.54290222E-11
0.37116686E-11
0.27698143E-11
0.24967853E-11
0.27634733E-11
0.34691518E-11
0.45151517E-11
0.57965733E-11
