atomic number =   65
effective nuclear charge =   65
electron count =   10
net charge =   55
basis set = approximate basis set limit (UGBS)      
exchange correlation functional = PW91PW91            
cutoff radius (picometer) =  300
number of shells =   50
prepared by = Thomas A. Manz      
prepared date = July 2010           
net magnetization =    0
density in atomic units:
0.38823574E+05
0.25578106E+02
0.16432117E+00
0.69328269E-03
0.62590730E-05
0.49224394E-06
0.34982352E-06
0.18762803E-06
0.16119335E-07
0.63577389E-07
0.43140730E-07
0.58673071E-08
0.32146166E-08
0.10229742E-07
0.10020310E-07
0.48365720E-08
0.94490793E-09
0.18442227E-09
0.97081676E-09
0.17071454E-08
0.17444863E-08
0.12530950E-08
0.64991490E-09
0.21535770E-09
0.30721880E-10
0.41234825E-10
0.13931931E-09
0.23436630E-09
0.28425462E-09
0.27812530E-09
0.23066475E-09
0.16407796E-09
0.99402618E-10
0.48370932E-10
0.16563593E-10
0.32156285E-11
0.33510957E-11
0.11575717E-10
0.22987856E-10
0.33438988E-10
0.40702490E-10
0.43995887E-10
0.43324358E-10
0.39513056E-10
0.33591435E-10
0.26736852E-10
0.19792801E-10
0.13503415E-10
0.83212447E-11
0.44850395E-11
