atomic number =   94
effective nuclear charge =   94
electron count =   36
net charge =   58
basis set = approximate basis set limit (UGBS)      
exchange correlation functional = PW91PW91            
cutoff radius (picometer) =  300
number of shells =   50
prepared by = Thomas A. Manz      
prepared date = July 2010           
net magnetization =    0
density in atomic units:
0.12739680E+06
0.22648584E+03
0.36355350E+02
0.11396287E+02
0.23438201E+01
0.32160348E+00
0.38818359E-01
0.50547328E-02
0.56893920E-03
0.65981090E-04
0.87802600E-05
0.11849278E-05
0.17826486E-06
0.82675442E-07
0.73599232E-07
0.39328363E-07
0.10252412E-07
0.27175273E-08
0.73168267E-08
0.12594250E-07
0.13183926E-07
0.98280610E-08
0.54176184E-08
0.20732369E-08
0.51503068E-09
0.43232420E-09
0.10696740E-08
0.17508465E-08
0.21365751E-08
0.21211994E-08
0.17932723E-08
0.13095338E-08
0.82543267E-09
0.43236184E-09
0.17719380E-09
0.59572194E-10
0.45575068E-10
0.96376934E-10
0.17565059E-09
0.25185939E-09
0.30695407E-09
0.33412026E-09
0.33185216E-09
0.30582450E-09
0.26334429E-09
0.21293907E-09
0.16084804E-09
0.11283593E-09
0.72542604E-10
0.42048639E-10
