atomic number =   89
effective nuclear charge =   89
electron count =   10
net charge =   79
basis set = approximate basis set limit (UGBS)      
exchange correlation functional = PW91PW91            
cutoff radius (picometer) =  300
number of shells =   50
prepared by = Thomas A. Manz      
prepared date = July 2010            
net magnetization =    0
density in atomic units:
0.10344298E+06
0.34141150E+01
0.20838783E-02
0.29076795E-04
0.69564367E-05
0.18193934E-05
0.13344124E-05
0.69530694E-06
0.54478853E-07
0.23948519E-06
0.15941141E-06
0.19548436E-07
0.11548373E-07
0.38429317E-07
0.37210899E-07
0.17514235E-07
0.30918306E-08
0.52239696E-09
0.36334964E-08
0.64031860E-08
0.64844281E-08
0.45951198E-08
0.23275830E-08
0.72428646E-09
0.68798509E-10
0.13827660E-09
0.52178889E-09
0.88104085E-09
0.10629890E-08
0.10328590E-08
0.84924673E-09
0.59696492E-09
0.35521858E-09
0.16695216E-09
0.51799891E-10
0.57682656E-11
0.95091096E-11
0.42519630E-10
0.86443130E-10
0.12582300E-09
0.15259616E-09
0.16414592E-09
0.16091885E-09
0.14593669E-09
0.12334317E-09
0.97485776E-10
0.71481931E-10
0.48125677E-10
0.29051851E-10
0.15076555E-10
