atomic number =   91
effective nuclear charge =   91
electron count =   28
net charge =   63
basis set = approximate basis set limit (UGBS)      
exchange correlation functional = PW91PW91            
cutoff radius (picometer) =  300
number of shells =   50
prepared by = Thomas A. Manz      
prepared date = July 2010           
net magnetization =    0
density in atomic units:
0.11471321E+06
0.21853740E+03
0.11302248E+02
0.31366205E+00
0.79076393E-02
0.17319982E-03
0.46845707E-05
0.95836515E-06
0.10896532E-06
0.29648038E-06
0.22190635E-06
0.43903690E-07
0.18329159E-07
0.47243919E-07
0.48622081E-07
0.26026690E-07
0.70503505E-08
0.19362238E-08
0.45959787E-08
0.78591054E-08
0.83000025E-08
0.62844676E-08
0.35591938E-08
0.14441761E-08
0.41361120E-09
0.30334890E-09
0.66151384E-09
0.10710434E-08
0.13145030E-08
0.13179404E-08
0.11282896E-08
0.83763518E-09
0.54089744E-09
0.29510494E-09
0.13123828E-09
0.51225670E-10
0.35721509E-10
0.61672063E-10
0.10707263E-09
0.15249879E-09
0.18639955E-09
0.20404244E-09
0.20412824E-09
0.18968498E-09
0.16485271E-09
0.13469684E-09
0.10313725E-09
0.73669446E-10
0.48631502E-10
0.29357027E-10
