atomic number =   74
effective nuclear charge =   74
electron count =   36
net charge =   38
basis set = approximate basis set limit (UGBS)      
exchange correlation functional = PW91PW91            
cutoff radius (picometer) =  500
number of shells =  100
prepared by = Thomas A. Manz      
prepared date = July 2010           
net magnetization =    0
density in atomic units:
0.42199450E+06
0.47138303E+03
0.10001317E+03
0.21037191E+02
0.10573636E+02
0.56315651E+01
0.24694843E+01
0.90552342E+00
0.31916061E+00
0.10901921E+00
0.35701983E-01
0.12100262E-01
0.39195875E-02
0.11895320E-02
0.38187724E-03
0.12624200E-03
0.39969436E-04
0.13149798E-04
0.44350345E-05
0.14398815E-05
0.47133412E-06
0.15869668E-06
0.54456070E-07
0.21951395E-07
0.11284190E-07
0.65004291E-08
0.35449130E-08
0.16221077E-08
0.52383203E-09
0.14254026E-09
0.23577187E-09
0.55020039E-09
0.87776386E-09
0.10968841E-08
0.11654018E-08
0.10911694E-08
0.91604707E-09
0.69330885E-09
0.47282739E-09
0.28249686E-09
0.14179669E-09
0.55564067E-10
0.17701009E-10
0.17469262E-10
0.41275677E-10
0.77960652E-10
0.11605869E-09
0.14799666E-09
0.17062889E-09
0.18179994E-09
0.18161786E-09
0.17155874E-09
0.15448257E-09
0.13300352E-09
0.10931485E-09
0.85562633E-10
0.63346751E-10
0.44058573E-10
0.28399545E-10
0.16585037E-10
0.84294698E-11
0.36136502E-11
0.16574253E-11
0.19514210E-11
0.39054827E-11
0.68933487E-11
0.10448437E-10
0.14193001E-10
0.17734999E-10
0.20830893E-10
0.23275203E-10
0.25037477E-10
0.26076342E-10
0.26420678E-10
0.26108386E-10
0.25195467E-10
0.23864547E-10
0.22159373E-10
0.20207384E-10
0.18108584E-10
0.15929874E-10
0.13742513E-10
0.11622084E-10
0.96270995E-11
0.78157220E-11
0.62001762E-11
0.47758889E-11
0.35599895E-11
0.25497313E-11
0.17304291E-11
0.11076163E-11
0.65324027E-12
0.35051874E-12
0.18502187E-12
0.13282825E-12
0.17543882E-12
0.29262438E-12
0.46845199E-12
0.68718246E-12
0.93257986E-12
