atomic number =   55
effective nuclear charge =   55
electron count =    2
net charge =   53
basis set = approximate basis set limit (UGBS)      
exchange correlation functional = PW91PW91            
cutoff radius (picometer) =  300
number of shells =   50
prepared by = Thomas A. Manz      
prepared date = July 2010           
net magnetization =    0
density in atomic units:
0.19809250E+05
0.39179963E-02
0.76943743E-05
0.29410171E-05
0.69440927E-06
0.17745438E-06
0.13388384E-06
0.68801661E-07
0.53423741E-08
0.24006736E-07
0.15863973E-07
0.18975579E-08
0.11542655E-08
0.38527963E-08
0.37174011E-08
0.17400474E-08
0.30095987E-09
0.49910898E-10
0.36450501E-09
0.64173922E-09
0.64851752E-09
0.45836859E-09
0.23117389E-09
0.71118229E-10
0.61539801E-11
0.13641945E-10
0.52323552E-10
0.88341015E-10
0.10647606E-09
0.10331386E-09
0.84810964E-10
0.59503825E-10
0.35300332E-10
0.16495163E-10
0.50286628E-11
0.48244910E-12
0.90923216E-12
0.42514044E-11
0.86664616E-11
0.12617444E-10
0.15296486E-10
0.16447791E-10
0.16104449E-10
0.14596810E-10
0.12322763E-10
0.97252562E-11
0.71200324E-11
0.47842338E-11
0.28778499E-11
0.14841808E-11
