atomic number =  101
effective nuclear charge =  101
electron count =   80
net charge =   21
basis set = approximate basis set limit (UGBS)      
exchange correlation functional = PW91PW91            
cutoff radius (picometer) =  400
number of shells =   75
prepared by = Thomas A. Manz      
prepared date = July 2010           
net magnetization =    0
density in atomic units:
0.15725455E+06
0.45172214E+03
0.16789613E+03
0.63428719E+02
0.21924885E+02
0.11808068E+02
0.74021955E+01
0.42238455E+01
0.22391472E+01
0.11815664E+01
0.64470059E+00
0.36689463E+00
0.21746193E+00
0.13538191E+00
0.86817898E-01
0.56511134E-01
0.36893629E-01
0.24183661E-01
0.15969038E-01
0.10588473E-01
0.70235175E-02
0.46472410E-02
0.30532037E-02
0.20087070E-02
0.13212597E-02
0.86761790E-03
0.56942698E-03
0.37459770E-03
0.24367649E-03
0.15832538E-03
0.10426027E-03
0.68532456E-04
0.44563094E-04
0.28895181E-04
0.18972885E-04
0.12485028E-04
0.81769249E-05
0.54005068E-05
0.36057754E-05
0.24049177E-05
0.16042547E-05
0.10845345E-05
0.73837731E-06
0.50470032E-06
0.34724465E-06
0.23996969E-06
0.16667279E-06
0.11590246E-06
0.80273082E-07
0.55541378E-07
0.38281410E-07
0.26260931E-07
0.17724894E-07
0.11796917E-07
0.77227087E-08
0.49016111E-08
0.29915672E-08
0.17504763E-08
0.97621722E-09
0.51600901E-09
0.27190514E-09
0.17122219E-09
0.15899486E-09
0.19760732E-09
0.26092140E-09
0.33073233E-09
0.39488668E-09
0.44721460E-09
0.48581006E-09
0.50692117E-09
0.51112681E-09
0.50317195E-09
0.48312826E-09
0.45184156E-09
0.41654211E-09
