atomic number =  106
effective nuclear charge =  106
electron count =   80
net charge =   26
basis set = approximate basis set limit (UGBS)      
exchange correlation functional = PW91PW91            
cutoff radius (picometer) =  300
number of shells =   50
prepared by = Thomas A. Manz      
prepared date = July 2010           
net magnetization =    0
density in atomic units:
0.17972220E+06
0.36153641E+03
0.12256130E+03
0.32673344E+02
0.15355380E+02
0.82976847E+01
0.39565966E+01
0.18582618E+01
0.87429583E+00
0.43939316E+00
0.22975969E+00
0.12407880E+00
0.71664043E-01
0.41303910E-01
0.23969956E-01
0.13779948E-01
0.78007067E-02
0.45120507E-02
0.25629415E-02
0.14468690E-02
0.81596657E-03
0.45867718E-03
0.25893238E-03
0.14615753E-03
0.82185339E-04
0.46106717E-04
0.25903066E-04
0.14757105E-04
0.83087716E-05
0.46471250E-05
0.26100442E-05
0.14571650E-05
0.81607294E-06
0.45472768E-06
0.25331960E-06
0.14291389E-06
0.81577582E-07
0.47051000E-07
0.27571026E-07
0.16719415E-07
0.10605457E-07
0.69544726E-08
0.47588564E-08
0.33586132E-08
0.23969748E-08
0.17134064E-08
0.12025007E-08
0.81848212E-09
0.53263072E-09
0.32851261E-09
