atomic number =  104
effective nuclear charge =  104
electron count =   80
net charge =   24
basis set = approximate basis set limit (UGBS)      
exchange correlation functional = PW91PW91            
cutoff radius (picometer) =  400
number of shells =   75
prepared by = Thomas A. Manz      
prepared date = July 2010           
net magnetization =    0
density in atomic units:
0.17060262E+06
0.45829807E+03
0.17506509E+03
0.59925678E+02
0.21589695E+02
0.12200732E+02
0.72986999E+01
0.39047740E+01
0.19630467E+01
0.10055143E+01
0.54216528E+00
0.30723533E+00
0.18091169E+00
0.11104143E+00
0.69586471E-01
0.43911051E-01
0.27601784E-01
0.17335761E-01
0.10932817E-01
0.69093336E-02
0.43589477E-02
0.27395973E-02
0.17063073E-02
0.10642033E-02
0.66351803E-03
0.41305917E-03
0.25710830E-03
0.16052276E-03
0.99022662E-04
0.60994586E-04
0.38142938E-04
0.23791703E-04
0.14649127E-04
0.89795922E-05
0.55730015E-05
0.34632433E-05
0.21365424E-05
0.13292015E-05
0.83684574E-06
0.52650915E-06
0.33188863E-06
0.21314990E-06
0.13869311E-06
0.91239571E-07
0.61127615E-07
0.41530161E-07
0.28647612E-07
0.19985789E-07
0.14005474E-07
0.98587130E-08
0.69373463E-08
0.48452047E-08
0.33231395E-08
0.22239475E-08
0.14472765E-08
0.89579777E-09
0.51880222E-09
0.27909117E-09
0.14004731E-09
0.73161588E-10
0.57054174E-10
0.74390459E-10
0.11133398E-09
0.15763174E-09
0.20538124E-09
0.24903818E-09
0.28473418E-09
0.31136707E-09
0.32722236E-09
0.33313657E-09
0.32996758E-09
0.31837430E-09
0.30024580E-09
0.27773200E-09
0.25129221E-09
