atomic number =   74
effective nuclear charge =   74
electron count =   12
net charge =   62
basis set = approximate basis set limit (UGBS)      
exchange correlation functional = PW91PW91            
cutoff radius (picometer) =  400
number of shells =   75
prepared by = Thomas A. Manz      
prepared date = July 2010           
net magnetization =    0
density in atomic units:
0.60237461E+05
0.54388668E+02
0.95836477E+01
0.10773922E+01
0.85194223E-01
0.47667618E-02
0.24223831E-03
0.18562054E-04
0.18070956E-05
0.76762817E-07
0.14764667E-06
0.14703105E-06
0.42803347E-07
0.29579981E-08
0.17594324E-07
0.31185490E-07
0.25665781E-07
0.11943584E-07
0.25636007E-08
0.30070291E-09
0.20602293E-08
0.43284230E-08
0.51984017E-08
0.44932729E-08
0.29959988E-08
0.15030213E-08
0.49183901E-09
0.62424607E-10
0.78576361E-10
0.32334296E-09
0.59161903E-09
0.77504170E-09
0.83065060E-09
0.76407336E-09
0.62192901E-09
0.44855580E-09
0.28061217E-09
0.14776112E-09
0.59788487E-10
0.13541027E-10
0.28426029E-11
0.16666986E-10
0.43331772E-10
0.73404685E-10
0.99601334E-10
0.11800762E-09
0.12699036E-09
0.12669527E-09
0.11862442E-09
0.10484224E-09
0.87811564E-10
0.69698407E-10
0.52051728E-10
0.36288389E-10
0.23377180E-10
0.13345824E-10
0.63171877E-11
0.21513824E-11
0.39191336E-12
0.51635860E-12
0.20128374E-11
0.43609595E-11
0.71379886E-11
0.10001270E-10
0.12649713E-10
0.14880250E-10
0.16569916E-10
0.17684600E-10
0.18234969E-10
0.18216447E-10
0.17706432E-10
0.16803685E-10
0.15585882E-10
0.14142493E-10
0.12577736E-10
