atomic number =  102
effective nuclear charge =  102
electron count =   10
net charge =   92
basis set = approximate basis set limit (UGBS)      
exchange correlation functional = PW91PW91            
cutoff radius (picometer) =  300
number of shells =   50
prepared by = Thomas A. Manz      
prepared date = July 2010           
net magnetization =    0
density in atomic units:
0.15315142E+06
0.89148557E+00
0.31345009E-03
0.49223218E-04
0.11083506E-04
0.30562883E-05
0.21127462E-05
0.11371002E-05
0.89445329E-07
0.37926412E-06
0.25697906E-06
0.33164017E-07
0.18245020E-07
0.60729661E-07
0.59348860E-07
0.28282695E-07
0.52071001E-08
0.89586166E-09
0.57194796E-08
0.10122022E-07
0.10303432E-07
0.73448754E-08
0.37552330E-08
0.11962469E-08
0.13311489E-09
0.22403855E-09
0.82216994E-09
0.13901438E-08
0.16821347E-08
0.16392308E-08
0.13523470E-08
0.95476671E-09
0.57168653E-09
0.27196645E-09
0.87345062E-10
0.12208057E-10
0.16315881E-10
0.67354532E-10
0.13623684E-09
0.19848166E-09
0.24110652E-09
0.25997821E-09
0.25527480E-09
0.23191483E-09
0.19641218E-09
0.15555800E-09
0.11441880E-09
0.77372171E-10
0.47026133E-10
0.24710440E-10
