atomic number =   86
effective nuclear charge =   86
electron count =   36
net charge =   50
basis set = approximate basis set limit (UGBS)      
exchange correlation functional = PW91PW91            
cutoff radius (picometer) =  300
number of shells =   50
prepared by = Thomas A. Manz      
prepared date = July 2010           
net magnetization =    0
density in atomic units:
0.97545539E+05
0.23954721E+03
0.35020630E+02
0.13520591E+02
0.40298147E+01
0.81817114E+00
0.14335917E+00
0.26101938E-01
0.43395800E-02
0.74011501E-03
0.12438153E-03
0.18435876E-04
0.27412434E-05
0.36795436E-06
0.83107082E-07
0.30411329E-07
0.66437749E-08
0.27628888E-08
0.82476346E-08
0.13021866E-07
0.13001501E-07
0.94050918E-08
0.50670583E-08
0.19035058E-08
0.49031756E-09
0.46964788E-09
0.11032275E-08
0.17530756E-08
0.21078193E-08
0.20763751E-08
0.17490482E-08
0.12764209E-08
0.80692258E-09
0.42674400E-09
0.18009928E-09
0.66002169E-10
0.51766258E-10
0.10004201E-09
0.17597934E-09
0.24924221E-09
0.30234526E-09
0.32852845E-09
0.32657216E-09
0.30144173E-09
0.26027944E-09
0.21127385E-09
0.16046983E-09
0.11349050E-09
0.73902405E-10
0.43746635E-10
