atomic number =   84
effective nuclear charge =   84
electron count =    2
net charge =   82
basis set = approximate basis set limit (UGBS)      
exchange correlation functional = PW91PW91            
cutoff radius (picometer) =  300
number of shells =   50
prepared by = Thomas A. Manz      
prepared date = July 2010           
net magnetization =    0
density in atomic units:
0.75413516E+05
0.45927698E-03
0.45267196E-04
0.14605370E-04
0.32277810E-05
0.88416323E-06
0.61459212E-06
0.32889480E-06
0.24337510E-07
0.11017475E-06
0.74157057E-07
0.91096197E-08
0.51550910E-08
0.17625158E-07
0.17151999E-07
0.80840774E-08
0.14182442E-08
0.22240448E-09
0.16555609E-08
0.29362790E-08
0.29778919E-08
0.21104574E-08
0.10676137E-08
0.33021608E-09
0.29045875E-10
0.61424858E-10
0.23818436E-09
0.40363796E-09
0.48740900E-09
0.47352322E-09
0.38915299E-09
0.27331909E-09
0.16234485E-09
0.76002135E-10
0.23259738E-10
0.22610731E-11
0.40965733E-11
0.19343064E-10
0.39550418E-10
0.57662101E-10
0.69961148E-10
0.75278603E-10
0.73746127E-10
0.66864091E-10
0.56462234E-10
0.44577911E-10
0.32650049E-10
0.21949451E-10
0.13210366E-10
0.68203390E-11
