atomic number =   80
effective nuclear charge =   80
electron count =   36
net charge =   44
basis set = approximate basis set limit (UGBS)      
exchange correlation functional = PW91PW91            
cutoff radius (picometer) =  300
number of shells =   50
prepared by = Thomas A. Manz      
prepared date = July 2010           
net magnetization =    0
density in atomic units:
0.77967211E+05
0.24231555E+03
0.35648182E+02
0.13830352E+02
0.53421607E+01
0.14335949E+01
0.32810023E+00
0.76436259E-01
0.16481170E-01
0.35579298E-02
0.72799576E-03
0.13390012E-03
0.26657897E-04
0.51858347E-05
0.11029117E-05
0.26966197E-06
0.68916044E-07
0.21641467E-07
0.11441004E-07
0.99170370E-08
0.82613365E-08
0.54490110E-08
0.26715909E-08
0.84804846E-09
0.17172277E-09
0.32192907E-09
0.80064122E-09
0.12166903E-08
0.14032306E-08
0.13302548E-08
0.10779183E-08
0.75091472E-09
0.44497880E-09
0.21081756E-09
0.70211316E-10
0.16370546E-10
0.24169847E-10
0.67602250E-10
0.12353464E-09
0.17286465E-09
0.20566969E-09
0.21885484E-09
0.21301190E-09
0.19246806E-09
0.16229286E-09
0.12818313E-09
0.94153456E-10
0.63670215E-10
0.38811284E-10
0.20629071E-10
