atomic number =   63
effective nuclear charge =   63
electron count =   10
net charge =   53
basis set = approximate basis set limit (UGBS)      
exchange correlation functional = PW91PW91            
cutoff radius (picometer) =  300
number of shells =   50
prepared by = Thomas A. Manz      
prepared date = July 2010           
net magnetization =    0
density in atomic units:
0.35123723E+05
0.29295160E+02
0.23054199E+00
0.12138383E-02
0.10227389E-04
0.45990453E-06
0.31726972E-06
0.16920228E-06
0.14242074E-07
0.57941854E-07
0.39063963E-07
0.51733546E-08
0.29156777E-08
0.93410035E-08
0.91137204E-08
0.43703716E-08
0.83482277E-09
0.16048717E-09
0.88799523E-09
0.15596816E-08
0.15895134E-08
0.11380498E-08
0.58709632E-09
0.19201966E-09
0.25681851E-10
0.37032814E-10
0.12746552E-09
0.21437886E-09
0.25962954E-09
0.25355978E-09
0.20985774E-09
0.14890365E-09
0.89868418E-10
0.43438909E-10
0.14606498E-10
0.26315545E-11
0.29286389E-11
0.10557141E-10
0.21038922E-10
0.30600206E-10
0.37208382E-10
0.40187392E-10
0.39519908E-10
0.35999047E-10
0.30565425E-10
0.24294764E-10
0.17948754E-10
0.12215895E-10
0.74986623E-11
0.40121782E-11
