atomic number =   14
effective nuclear charge =   14
electron count =   12
net charge =    2
basis set = approximate basis set limit (UGBS)      
exchange correlation functional = PW91PW91            
cutoff radius (picometer) =  300
number of shells =   50
prepared by = Thomas A. Manz      
prepared date = May 2010            
net magnetization =    0
density in atomic units:
0.37035379E+03
0.24919712E+02
0.11262638E+02
0.69887114E+01
0.39603004E+01
0.19876271E+01
0.97489363E+00
0.49784324E+00
0.25750995E+00
0.14437373E+00
0.89238882E-01
0.62222913E-01
0.48946366E-01
0.40553581E-01
0.34580637E-01
0.29626798E-01
0.25269875E-01
0.21561190E-01
0.18178828E-01
0.15196779E-01
0.12615020E-01
0.10399886E-01
0.85416110E-02
0.69803027E-02
0.56740185E-02
0.45914673E-02
0.37088552E-02
0.30045887E-02
0.24191758E-02
0.19415929E-02
0.15599335E-02
0.12498936E-02
0.10025620E-02
0.80206286E-03
0.64099790E-03
0.51354297E-03
0.41189077E-03
0.32973435E-03
0.26295081E-03
0.21019629E-03
0.16837021E-03
0.13431677E-03
0.10738313E-03
0.85967360E-04
0.68706897E-04
0.55014905E-04
0.43986820E-04
0.35158922E-04
0.28096318E-04
0.22492561E-04
