atomic number =  106
effective nuclear charge =  106
electron count =   78
net charge =   28
basis set = approximate basis set limit (UGBS)      
exchange correlation functional = PW91PW91            
cutoff radius (picometer) =  400
number of shells =   75
prepared by = Thomas A. Manz      
prepared date = July 2010           
net magnetization =    0
density in atomic units:
0.17961911E+06
0.46387213E+03
0.17849742E+03
0.57422112E+02
0.21336706E+02
0.12349944E+02
0.71403422E+01
0.35688434E+01
0.16057492E+01
0.69793653E+00
0.29995307E+00
0.12729119E+00
0.52916642E-01
0.22312157E-01
0.94859907E-02
0.40493095E-02
0.17081868E-02
0.71771565E-03
0.30126274E-03
0.12698121E-03
0.53258787E-04
0.22542379E-04
0.95558289E-05
0.41840267E-05
0.18819279E-05
0.86253755E-06
0.39915039E-06
0.18568407E-06
0.85190678E-07
0.40384094E-07
0.21830330E-07
0.14006475E-07
0.10471119E-07
0.83996419E-08
0.66950703E-08
0.50323026E-08
0.34601704E-08
0.21574345E-08
0.12111976E-08
0.61423389E-09
0.34183389E-09
0.32342995E-09
0.46226728E-09
0.67469269E-09
0.89053764E-09
0.10650301E-08
0.11725785E-08
0.12050345E-08
0.11673247E-08
0.10727925E-08
0.93970409E-09
0.78646906E-09
0.62712296E-09
0.47667342E-09
0.34565692E-09
0.23631841E-09
0.15195353E-09
0.93497522E-10
0.58215120E-10
0.42322597E-10
0.41816068E-10
0.52399685E-10
0.70076445E-10
0.91417693E-10
0.11343024E-09
0.13383300E-09
0.15086103E-09
0.16380222E-09
0.17206066E-09
0.17535236E-09
0.17410105E-09
0.16890297E-09
0.16030700E-09
0.14925616E-09
0.13631869E-09
