atomic number =   88
effective nuclear charge =   88
electron count =   28
net charge =   60
basis set = approximate basis set limit (UGBS)      
exchange correlation functional = PW91PW91            
cutoff radius (picometer) =  300
number of shells =   50
prepared by = Thomas A. Manz      
prepared date = July 2010           
net magnetization =    0
density in atomic units:
0.10374098E+06
0.22481975E+03
0.14113341E+02
0.47291532E+00
0.14265375E-01
0.35895171E-03
0.83939149E-05
0.86622117E-06
0.83770686E-07
0.26160100E-06
0.19936009E-06
0.40344144E-07
0.16104519E-07
0.41529624E-07
0.43219838E-07
0.23464374E-07
0.65541599E-08
0.18116024E-08
0.40320312E-08
0.69073658E-08
0.73473201E-08
0.56126539E-08
0.32192540E-08
0.13375809E-08
0.40143022E-09
0.27999969E-09
0.58172978E-09
0.93902397E-09
0.11567270E-08
0.11654199E-08
0.10033596E-08
0.75019585E-09
0.48910870E-09
0.27094954E-09
0.12386926E-09
0.50428852E-10
0.34196982E-10
0.55161202E-10
0.94022796E-10
0.13366511E-09
0.16367016E-09
0.17961210E-09
0.18032292E-09
0.16810811E-09
0.14666153E-09
0.12038538E-09
0.92656958E-10
0.66659706E-10
0.44436309E-10
0.27212645E-10
