atomic number =   65
effective nuclear charge =   65
electron count =   48
net charge =   17
basis set = approximate basis set limit (UGBS)      
exchange correlation functional = PW91PW91            
cutoff radius (picometer) =  500
number of shells =  100
prepared by = Thomas A. Manz      
prepared date = July 2010           
net magnetization =    0
density in atomic units:
0.27730191E+06
0.41886203E+03
0.11716924E+03
0.28303232E+02
0.16011621E+02
0.11884338E+02
0.74669394E+01
0.40358205E+01
0.21206973E+01
0.11171321E+01
0.60997689E+00
0.36417818E+00
0.22805074E+00
0.14891520E+00
0.10331755E+00
0.73307186E-01
0.51591258E-01
0.36626380E-01
0.25952069E-01
0.18127963E-01
0.12708028E-01
0.89486921E-02
0.62230541E-02
0.43072030E-02
0.29921122E-02
0.20686148E-02
0.14250816E-02
0.98679622E-03
0.67822059E-03
0.46672625E-03
0.32238083E-03
0.22111014E-03
0.15210909E-03
0.10481053E-03
0.72129238E-04
0.49424696E-04
0.33792723E-04
0.23124545E-04
0.15913505E-04
0.10927331E-04
0.75050179E-05
0.51655356E-05
0.35509120E-05
0.24661201E-05
0.17135925E-05
0.11812635E-05
0.81813084E-06
0.57168921E-06
0.39764490E-06
0.27655446E-06
0.19233630E-06
0.13332178E-06
0.92743846E-07
0.64621481E-07
0.44858673E-07
0.31013322E-07
0.21313641E-07
0.14599691E-07
0.99700799E-08
0.67891035E-08
0.45938262E-08
0.30881027E-08
0.20668356E-08
0.13717647E-08
0.90225127E-09
0.59258609E-09
0.38679698E-09
0.24966559E-09
0.16080952E-09
0.10397010E-09
0.68527475E-10
0.46754114E-10
0.33564530E-10
0.25926167E-10
0.21565683E-10
0.19145093E-10
0.17825718E-10
0.17017244E-10
0.16412562E-10
0.15830583E-10
0.15163147E-10
0.14379570E-10
0.13489003E-10
0.12504307E-10
0.11462239E-10
0.10398972E-10
0.93274928E-11
0.82767872E-11
0.72872142E-11
0.63484344E-11
0.54949040E-11
0.47351597E-11
0.40567840E-11
0.34819406E-11
0.30040415E-11
0.26077901E-11
0.23058914E-11
0.20748245E-11
0.19105208E-11
0.18068956E-11
