atomic number =   75
effective nuclear charge =   75
electron count =   48
net charge =   27
basis set = approximate basis set limit (UGBS)      
exchange correlation functional = PW91PW91            
cutoff radius (picometer) =  400
number of shells =   75
prepared by = Thomas A. Manz      
prepared date = July 2010           
net magnetization =    0
density in atomic units:
0.63729426E+05
0.36166147E+03
0.73574471E+02
0.30718946E+02
0.19633320E+02
0.94870443E+01
0.40952811E+01
0.17489896E+01
0.79985923E+00
0.42078102E+00
0.24575424E+00
0.15031813E+00
0.92740111E-01
0.57561260E-01
0.35481464E-01
0.21607932E-01
0.12942730E-01
0.76888767E-02
0.45679128E-02
0.27141704E-02
0.16066361E-02
0.94674650E-03
0.55208878E-03
0.32288083E-03
0.18914562E-03
0.11094179E-03
0.65301312E-04
0.38727470E-04
0.22769136E-04
0.13417080E-04
0.80641730E-05
0.48430788E-05
0.28686629E-05
0.16868571E-05
0.10007576E-05
0.58983198E-06
0.34086185E-06
0.19578215E-06
0.11176296E-06
0.62144629E-07
0.33512947E-07
0.17809562E-07
0.92320152E-08
0.46210449E-08
0.22619000E-08
0.10976491E-08
0.55163996E-09
0.30873309E-09
0.20308617E-09
0.15451379E-09
0.12468353E-09
0.99339807E-10
0.74788002E-10
0.52173162E-10
0.33612346E-10
0.20213642E-10
0.12856055E-10
0.11531827E-10
0.15340553E-10
0.23114781E-10
0.33503252E-10
0.45004774E-10
0.56494445E-10
0.67030576E-10
0.75847315E-10
0.82401898E-10
0.86487602E-10
0.88135138E-10
0.87567724E-10
0.84743622E-10
0.80148534E-10
0.74314943E-10
0.67493372E-10
0.60017880E-10
0.52370074E-10
