atomic number =  108
effective nuclear charge =  108
electron count =   86
net charge =   22
basis set = approximate basis set limit (UGBS)      
exchange correlation functional = PW91PW91            
cutoff radius (picometer) =  500
number of shells =  100
prepared by = Thomas A. Manz      
prepared date = July 2010           
net magnetization =    0
density in atomic units:
0.13126601E+07
0.79891205E+03
0.22699425E+03
0.66749893E+02
0.24168242E+02
0.15056478E+02
0.88739328E+01
0.46678629E+01
0.25828862E+01
0.15944169E+01
0.10919772E+01
0.80447280E+00
0.59383655E+00
0.43084797E+00
0.31347144E+00
0.22509593E+00
0.15682875E+00
0.10884470E+00
0.74906312E-01
0.50597079E-01
0.34266818E-01
0.23313249E-01
0.15642358E-01
0.10443181E-01
0.70038531E-02
0.46772920E-02
0.31160582E-02
0.20919046E-02
0.13964708E-02
0.93602005E-03
0.63171855E-03
0.42412756E-03
0.28628757E-03
0.19385878E-03
0.13118717E-03
0.88391811E-04
0.59378435E-04
0.39867722E-04
0.26878441E-04
0.18038598E-04
0.12077563E-04
0.80840637E-05
0.53893705E-05
0.36240981E-05
0.24336593E-05
0.16171522E-05
0.10785786E-05
0.72597305E-06
0.48598980E-06
0.32531213E-06
0.21792830E-06
0.14561894E-06
0.97876956E-07
0.66065766E-07
0.44424940E-07
0.29889410E-07
0.20014257E-07
0.13428154E-07
0.90151815E-08
0.60788765E-08
0.41069912E-08
0.27910712E-08
0.19209483E-08
0.13416839E-08
0.95913633E-09
0.71292433E-09
0.55219029E-09
0.44767751E-09
0.38124551E-09
0.33935130E-09
0.31304764E-09
0.29565236E-09
0.28318387E-09
0.27275782E-09
0.26257149E-09
0.25138344E-09
0.23957986E-09
0.22618993E-09
0.21153054E-09
0.19584931E-09
0.17919387E-09
0.16196097E-09
0.14455045E-09
0.12745242E-09
0.11103016E-09
0.95547570E-10
0.80898739E-10
0.67553484E-10
0.55512449E-10
0.44789554E-10
0.35553227E-10
0.27693389E-10
0.21168759E-10
0.15961860E-10
0.11962899E-10
0.90319705E-11
0.70737027E-11
0.59465865E-11
0.55240131E-11
0.57013847E-11
