atomic number =   54
effective nuclear charge =   54
electron count =   48
net charge =    6
basis set = approximate basis set limit (UGBS)      
exchange correlation functional = PW91PW91            
cutoff radius (picometer) =  400
number of shells =   75
prepared by = Thomas A. Manz      
prepared date = July 2010           
net magnetization =    0
density in atomic units:
0.22075918E+05
0.20952953E+03
0.87591934E+02
0.30830832E+02
0.10988890E+02
0.68629265E+01
0.54226785E+01
0.39209263E+01
0.25713270E+01
0.15978702E+01
0.97926009E+00
0.60120523E+00
0.37451440E+00
0.24221960E+00
0.16220020E+00
0.11208406E+00
0.79444043E-01
0.57768263E-01
0.43024279E-01
0.32564417E-01
0.24889788E-01
0.19097820E-01
0.14645333E-01
0.11258230E-01
0.86617712E-02
0.66576330E-02
0.51147407E-02
0.39341804E-02
0.30030506E-02
0.22909285E-02
0.17614957E-02
0.13523322E-02
0.10305351E-02
0.78337290E-03
0.59966487E-03
0.45881805E-03
0.34928523E-03
0.26668169E-03
0.20439683E-03
0.15595288E-03
0.11853888E-03
0.90530870E-04
0.69152411E-04
0.52737654E-04
0.40280062E-04
0.30757099E-04
0.23507739E-04
0.17957422E-04
0.13685083E-04
0.10444017E-04
0.79803613E-05
0.61120531E-05
0.46734408E-05
0.35774808E-05
0.27511092E-05
0.21121741E-05
0.16193122E-05
0.12448252E-05
0.95958467E-06
0.73946541E-06
0.56975421E-06
0.44039555E-06
0.34060255E-06
0.26327496E-06
0.20344191E-06
0.15728553E-06
0.12186055E-06
0.94274689E-07
0.72828030E-07
0.56378212E-07
0.43730768E-07
0.33766984E-07
0.26011529E-07
0.20045960E-07
0.15463080E-07
