atomic number =   58
effective nuclear charge =   58
electron count =   48
net charge =   10
basis set = approximate basis set limit (UGBS)      
exchange correlation functional = PW91PW91            
cutoff radius (picometer) =  400
number of shells =   75
prepared by = Thomas A. Manz      
prepared date = July 2010           
net magnetization =    0
density in atomic units:
0.27834588E+05
0.23702838E+03
0.91364517E+02
0.27274725E+02
0.11880987E+02
0.86986160E+01
0.62564783E+01
0.39113061E+01
0.22351093E+01
0.12452736E+01
0.70615178E+00
0.41466409E+00
0.25448343E+00
0.16564438E+00
0.11248039E+00
0.78433149E-01
0.55365860E-01
0.39426774E-01
0.28313942E-01
0.20398842E-01
0.14690708E-01
0.10537168E-01
0.75018192E-02
0.53338716E-02
0.37841538E-02
0.26751950E-02
0.18868010E-02
0.13310732E-02
0.92878047E-03
0.64681028E-03
0.45506837E-03
0.31947924E-03
0.22210742E-03
0.15397582E-03
0.10781147E-03
0.75555421E-04
0.52671196E-04
0.36920399E-04
0.26060712E-04
0.18326389E-04
0.12845447E-04
0.90748699E-05
0.64230035E-05
0.45404427E-05
0.32171399E-05
0.22788256E-05
0.16145831E-05
0.11417804E-05
0.80310929E-06
0.56431276E-06
0.39562224E-06
0.27687889E-06
0.19235203E-06
0.13294996E-06
0.91811174E-07
0.62733086E-07
0.42367546E-07
0.28408580E-07
0.18888906E-07
0.12377010E-07
0.79701152E-08
0.50595412E-08
0.31392557E-08
0.18901396E-08
0.10992987E-08
0.61225114E-09
0.32412434E-09
0.16000638E-09
0.73163670E-10
0.33644303E-10
0.20071091E-10
0.19761286E-10
0.25208518E-10
0.31945731E-10
0.37576060E-10
