atomic number =   80
effective nuclear charge =   80
electron count =   30
net charge =   50
basis set = approximate basis set limit (UGBS)      
exchange correlation functional = PW91PW91            
cutoff radius (picometer) =  300
number of shells =   50
prepared by = Thomas A. Manz      
prepared date = July 2010           
net magnetization =    0
density in atomic units:
0.77946859E+05
0.23436943E+03
0.27353392E+02
0.46138525E+01
0.13181449E+01
0.30117813E+00
0.58833234E-01
0.11920545E-01
0.22459370E-02
0.42301774E-03
0.73911004E-04
0.10835457E-04
0.15648363E-05
0.20360598E-06
0.44907498E-07
0.16516458E-07
0.45502451E-08
0.33978180E-08
0.67437553E-08
0.89531609E-08
0.81523437E-08
0.54434004E-08
0.26351668E-08
0.79447959E-09
0.12633604E-09
0.29483543E-09
0.78933216E-09
0.12140519E-08
0.14031306E-08
0.13291069E-08
0.10744597E-08
0.74562417E-09
0.43902867E-09
0.20526116E-09
0.65753000E-10
0.13248367E-10
0.22285954E-10
0.66676477E-10
0.12323409E-09
0.17283296E-09
0.20565727E-09
0.21875017E-09
0.21273343E-09
0.19201088E-09
0.16168819E-09
0.12748390E-09
0.93419245E-10
0.62979115E-10
0.38202937E-10
0.20123342E-10
