atomic number =   64
effective nuclear charge =   64
electron count =   54
net charge =   10
basis set = approximate basis set limit (UGBS)      
exchange correlation functional = PW91PW91            
cutoff radius (picometer) =  300
number of shells =   50
prepared by = Thomas A. Manz      
prepared date = July 2010           
net magnetization =    0
density in atomic units:
0.38285645E+05
0.21729822E+03
0.53162540E+02
0.18203976E+02
0.12525556E+02
0.70846081E+01
0.34402375E+01
0.17412609E+01
0.97933698E+00
0.65148562E+00
0.47948241E+00
0.36701548E+00
0.28657493E+00
0.21949512E+00
0.16597955E+00
0.12301226E+00
0.89571528E-01
0.65481864E-01
0.47132410E-01
0.33689845E-01
0.24011226E-01
0.17056102E-01
0.12134756E-01
0.86235022E-02
0.61103031E-02
0.43206429E-02
0.30580547E-02
0.21825726E-02
0.15474057E-02
0.10942894E-02
0.77720423E-03
0.55099401E-03
0.39223759E-03
0.27883533E-03
0.19834691E-03
0.14196460E-03
0.10198752E-03
0.73198011E-04
0.52310857E-04
0.37548325E-04
0.27057922E-04
0.19380646E-04
0.13921573E-04
0.10015570E-04
0.71813133E-05
0.51581646E-05
0.36931112E-05
0.26398152E-05
0.18843308E-05
0.13474335E-05
