atomic number =   91
effective nuclear charge =   91
electron count =   18
net charge =   73
basis set = approximate basis set limit (UGBS)      
exchange correlation functional = PW91PW91            
cutoff radius (picometer) =  300
number of shells =   50
prepared by = Thomas A. Manz      
prepared date = July 2010           
net magnetization =    0
density in atomic units:
0.11421959E+06
0.11142836E+03
0.58742905E+01
0.14084603E+00
0.28828594E-02
0.54503107E-04
0.21540038E-05
0.94155610E-06
0.95284449E-07
0.29531230E-06
0.21823311E-06
0.38642042E-07
0.15918848E-07
0.46952792E-07
0.48443638E-07
0.25348880E-07
0.62581140E-08
0.14101161E-08
0.43913828E-08
0.78288087E-08
0.82901348E-08
0.62245502E-08
0.34530530E-08
0.13261656E-08
0.31526454E-09
0.23934354E-09
0.62979805E-09
0.10604236E-08
0.13133018E-08
0.13168199E-08
0.11224450E-08
0.82616880E-09
0.52545457E-09
0.27824953E-09
0.11537801E-09
0.37998219E-10
0.25846146E-10
0.55154194E-10
0.10341021E-09
0.15085416E-09
0.18594074E-09
0.20400479E-09
0.20401049E-09
0.18915190E-09
0.16377068E-09
0.13309977E-09
0.10113298E-09
0.71426712E-10
0.46308901E-10
0.27115553E-10
