atomic number =   98
effective nuclear charge =   98
electron count =    2
net charge =   96
basis set = approximate basis set limit (UGBS)      
exchange correlation functional = PW91PW91            
cutoff radius (picometer) =  300
number of shells =   50
prepared by = Thomas A. Manz      
prepared date = July 2010           
net magnetization =    0
density in atomic units:
0.11775673E+06
0.98090619E-03
0.79041638E-04
0.25401419E-04
0.55302075E-05
0.15392360E-05
0.10498985E-05
0.56710570E-06
0.41535223E-07
0.18824173E-06
0.12723001E-06
0.15721094E-07
0.87561123E-08
0.30097031E-07
0.29344342E-07
0.13852078E-07
0.24376148E-08
0.37762807E-09
0.28227305E-08
0.50143596E-08
0.50896021E-08
0.36092409E-08
0.18269195E-08
0.56574490E-09
0.49937141E-10
0.10453501E-09
0.40633807E-09
0.68912376E-09
0.83249546E-09
0.80901347E-09
0.66498290E-09
0.46715970E-09
0.27756308E-09
0.12998529E-09
0.39819811E-10
0.38814828E-11
0.69733269E-11
0.32992782E-10
0.67503107E-10
0.98447257E-10
0.11947321E-09
0.12856724E-09
0.12595384E-09
0.11420707E-09
0.96461866E-10
0.76161050E-10
0.55786584E-10
0.37502335E-10
0.22579041E-10
0.11659841E-10
