atomic number =  105
effective nuclear charge =  105
electron count =   36
net charge =   69
basis set = approximate basis set limit (UGBS)      
exchange correlation functional = PW91PW91            
cutoff radius (picometer) =  300
number of shells =   50
prepared by = Thomas A. Manz      
prepared date = July 2010           
net magnetization =    0
density in atomic units:
0.17439655E+06
0.20167409E+03
0.36340343E+02
0.70368447E+01
0.85845566E+00
0.66743881E-01
0.47406196E-02
0.43728025E-03
0.31820313E-04
0.17487648E-05
0.40233758E-06
0.79918912E-07
0.30718297E-07
0.10424842E-06
0.11709060E-06
0.68073341E-07
0.20883862E-07
0.47041886E-08
0.87104386E-08
0.16621939E-07
0.19060717E-07
0.15547007E-07
0.95993320E-08
0.44141086E-08
0.14633184E-08
0.69875744E-09
0.12446628E-08
0.21430848E-08
0.28134439E-08
0.29895462E-08
0.27024065E-08
0.21270159E-08
0.14716744E-08
0.88103869E-09
0.44812679E-09
0.19939711E-09
0.10594720E-09
0.12292120E-09
0.20290124E-09
0.30043124E-09
0.38435968E-09
0.43905474E-09
0.45651946E-09
0.43978973E-09
0.39643980E-09
0.33649478E-09
0.26876984E-09
0.20190670E-09
0.14183899E-09
0.92870878E-10
