atomic number =   94
effective nuclear charge =   94
electron count =   10
net charge =   84
basis set = approximate basis set limit (UGBS)      
exchange correlation functional = PW91PW91            
cutoff radius (picometer) =  300
number of shells =   50
prepared by = Thomas A. Manz      
prepared date = July 2010           
net magnetization =    0
density in atomic units:
0.12149540E+06
0.20754588E+01
0.86804468E-03
0.36548696E-04
0.84786443E-05
0.22631875E-05
0.16247053E-05
0.85645115E-06
0.66742999E-07
0.29164599E-06
0.19527504E-06
0.24279027E-07
0.14014303E-07
0.46765770E-07
0.45416375E-07
0.21448450E-07
0.38266550E-08
0.64551126E-09
0.44151687E-08
0.77936253E-08
0.79045206E-08
0.56097913E-08
0.28482465E-08
0.89125768E-09
0.87966578E-10
0.16893402E-09
0.63443845E-09
0.10718569E-08
0.12942536E-08
0.12585478E-08
0.10354662E-08
0.72872047E-09
0.43421586E-09
0.20467977E-09
0.64026007E-10
0.75435474E-11
0.11768941E-10
0.51742204E-10
0.10511388E-09
0.15309365E-09
0.18571758E-09
0.19989876E-09
0.19602041E-09
0.17792172E-09
0.15040189E-09
0.11894929E-09
0.87257541E-10
0.58813732E-10
0.35546465E-10
0.18503711E-10
