atomic number =   30
effective nuclear charge =   30
electron count =   28
net charge =    2
basis set = approximate basis set limit (UGBS)      
exchange correlation functional = PW91PW91            
cutoff radius (picometer) =  500
number of shells =  100
prepared by = Thomas A. Manz      
prepared date = July 2010           
net magnetization =    0
density in atomic units:
0.21738963E+05
0.16906102E+03
0.44858429E+02
0.14078125E+02
0.88957272E+01
0.69686704E+01
0.50803995E+01
0.34034781E+01
0.22321527E+01
0.14339751E+01
0.91516274E+00
0.59988070E+00
0.39177328E+00
0.25664207E+00
0.17510588E+00
0.12182244E+00
0.84627792E-01
0.60130604E-01
0.43339442E-01
0.31345274E-01
0.23105796E-01
0.17326074E-01
0.13010965E-01
0.98322062E-02
0.75110923E-02
0.57565039E-02
0.44273259E-02
0.34349354E-02
0.26640857E-02
0.20776459E-02
0.16306564E-02
0.12787370E-02
0.10080369E-02
0.79777354E-03
0.63237769E-03
0.50089520E-03
0.39701350E-03
0.31532976E-03
0.25162852E-03
0.20072272E-03
0.16031912E-03
0.12829113E-03
0.10266913E-03
0.82714876E-04
0.66688117E-04
0.53543965E-04
0.43149434E-04
0.34967023E-04
0.28282901E-04
0.22896187E-04
0.18552802E-04
0.15022208E-04
0.12207657E-04
0.99432509E-05
0.80977243E-05
0.65936001E-05
0.53641106E-05
0.43676491E-05
0.35623095E-05
0.29102041E-05
0.23783211E-05
0.19452846E-05
0.15944055E-05
0.13072982E-05
0.10727398E-05
0.88373861E-06
0.72868227E-06
0.60001912E-06
0.49479377E-06
0.40806688E-06
0.33767296E-06
0.27973661E-06
0.23173716E-06
0.19233478E-06
0.15947184E-06
0.13227522E-06
0.10980536E-06
0.91112383E-07
0.75666186E-07
0.62939570E-07
0.52256656E-07
0.43328299E-07
0.35902328E-07
0.29739594E-07
0.24674383E-07
0.20477572E-07
0.16970862E-07
0.14058020E-07
0.11637786E-07
0.96078736E-08
0.79434956E-08
0.65563928E-08
0.54006652E-08
0.44533901E-08
0.36661016E-08
0.30148168E-08
0.24809628E-08
0.20366160E-08
0.16684273E-08
0.13666027E-08
