atomic number =  106
effective nuclear charge =  106
electron count =    4
net charge =  102
basis set = approximate basis set limit (UGBS)      
exchange correlation functional = PW91PW91            
cutoff radius (picometer) =  300
number of shells =   50
prepared by = Thomas A. Manz      
prepared date = July 2010           
net magnetization =    0
density in atomic units:
0.17001600E+06
0.16588631E+00
0.21818445E-03
0.54732525E-04
0.12329772E-04
0.33278650E-05
0.23597183E-05
0.12497319E-05
0.93857679E-07
0.42373358E-06
0.28365093E-06
0.34559690E-07
0.20024643E-07
0.67914726E-07
0.65903350E-07
0.30988208E-07
0.54096509E-08
0.86586244E-09
0.63990004E-08
0.11318750E-07
0.11464580E-07
0.81171265E-08
0.41014840E-08
0.12659304E-08
0.11066240E-09
0.23834640E-09
0.92025793E-09
0.15571496E-08
0.18791491E-08
0.18244734E-08
0.14988167E-08
0.10522448E-08
0.62470279E-09
0.29223735E-09
0.89287994E-10
0.86341984E-11
0.15897119E-10
0.74770003E-10
0.15267071E-09
0.22244263E-09
0.26982550E-09
0.29030978E-09
0.28424474E-09
0.25771540E-09
0.21758673E-09
0.17178843E-09
0.12578726E-09
0.84540271E-10
0.50868320E-10
0.26252845E-10
