atomic number =   23
effective nuclear charge =   23
electron count =    4
net charge =   19
basis set = approximate basis set limit (UGBS)      
exchange correlation functional = PW91PW91            
cutoff radius (picometer) =  500
number of shells =  100
prepared by = Thomas A. Manz      
prepared date = July 2010           
net magnetization =    0
density in atomic units:
0.91242715E+04
0.32703926E+02
0.99509039E+01
0.39312384E+01
0.12189426E+01
0.39475933E+00
0.11660782E+00
0.30414628E-01
0.80778273E-02
0.21599326E-02
0.55641099E-03
0.15108038E-03
0.39348612E-04
0.94829602E-05
0.24520978E-05
0.66666865E-06
0.17583820E-06
0.50100372E-07
0.15232915E-07
0.45297073E-08
0.13398492E-08
0.38428455E-09
0.10177271E-09
0.35207257E-10
0.23415093E-10
0.19293485E-10
0.13842344E-10
0.80125021E-11
0.35276311E-11
0.12798019E-11
0.94786679E-12
0.17330628E-11
0.28383194E-11
0.37085920E-11
0.40911480E-11
0.39525067E-11
0.34084729E-11
0.26449667E-11
0.18501630E-11
0.11380327E-11
0.59256392E-12
0.24172808E-12
0.70206102E-13
0.43520929E-13
0.11241163E-12
0.23580598E-12
0.37100564E-12
0.48861094E-12
0.57553728E-12
0.62211835E-12
0.62801912E-12
0.59806972E-12
0.54174758E-12
0.46832931E-12
0.38605585E-12
0.30262652E-12
0.22397465E-12
0.15525759E-12
0.99169953E-13
0.56641307E-13
0.27091592E-13
0.94644107E-14
0.20906662E-14
0.28156991E-14
0.95496172E-14
0.20053044E-13
0.32655183E-13
0.45980733E-13
0.58661091E-13
0.69805991E-13
0.78685735E-13
0.85071842E-13
0.88985141E-13
0.90290602E-13
0.89340380E-13
0.86403527E-13
0.81876475E-13
0.76019940E-13
0.69230910E-13
0.61978166E-13
0.54427881E-13
0.46832936E-13
0.39489716E-13
0.32582454E-13
0.26321083E-13
0.20731116E-13
0.15815877E-13
0.11636689E-13
0.81707466E-14
0.53719998E-14
0.32565420E-14
0.17269655E-14
0.72357864E-15
0.19400678E-15
0.56015923E-16
0.24304800E-15
0.68510486E-15
0.13276095E-14
0.21157576E-14
0.29901432E-14
