atomic number =   22
effective nuclear charge =   22
electron count =    4
net charge =   18
basis set = approximate basis set limit (UGBS)      
exchange correlation functional = PW91PW91            
cutoff radius (picometer) =  500
number of shells =  100
prepared by = Thomas A. Manz      
prepared date = July 2010           
net magnetization =    0
density in atomic units:
0.79144600E+04
0.33240799E+02
0.92338839E+01
0.40199656E+01
0.13718067E+01
0.48023024E+00
0.15309262E+00
0.43333016E-01
0.12480112E-01
0.36044470E-02
0.10039839E-02
0.29329830E-03
0.82304432E-04
0.21588878E-04
0.60797415E-05
0.17883364E-05
0.50483357E-06
0.14956545E-06
0.45836451E-07
0.13487971E-07
0.39686729E-08
0.11635215E-08
0.31374142E-09
0.83500047E-10
0.26878898E-10
0.12206501E-10
0.66751834E-11
0.33776447E-11
0.13210523E-11
0.49381132E-12
0.59057577E-12
0.11668594E-11
0.18088162E-11
0.22543692E-11
0.24015380E-11
0.22578549E-11
0.19033213E-11
0.14466208E-11
0.99143252E-12
0.59628984E-12
0.30273191E-12
0.12148376E-12
0.40451857E-13
0.37683656E-13
0.85025682E-13
0.15931992E-12
0.23685641E-12
0.30193158E-12
0.34797409E-12
0.37033587E-12
0.36943032E-12
0.34854888E-12
0.31318820E-12
0.26885425E-12
0.22020158E-12
0.17150444E-12
0.12610257E-12
0.86813159E-13
0.55035173E-13
0.31211080E-13
0.14898264E-13
0.54263044E-14
0.17850989E-14
0.27112868E-14
0.69868847E-14
0.13317066E-13
0.20753574E-13
0.28516215E-13
0.35817344E-13
0.42184443E-13
0.47188114E-13
0.50736986E-13
0.52810661E-13
0.53467034E-13
0.52699083E-13
0.50850278E-13
0.48062682E-13
0.44525320E-13
0.40501253E-13
0.36206677E-13
0.31743874E-13
0.27283570E-13
0.22984087E-13
0.18945865E-13
0.15288072E-13
0.12032404E-13
0.91771022E-14
0.67497010E-14
0.47430605E-14
0.31254415E-14
0.19066180E-14
0.10298550E-14
0.45889312E-15
0.16302049E-15
0.94125524E-16
0.21344306E-15
0.47985825E-15
0.86178175E-15
0.13273196E-14
0.18417209E-14
