atomic number =  103
effective nuclear charge =  103
electron count =   80
net charge =   23
basis set = approximate basis set limit (UGBS)      
exchange correlation functional = PW91PW91            
cutoff radius (picometer) =  500
number of shells =  100
prepared by = Thomas A. Manz      
prepared date = July 2010           
net magnetization =    0
density in atomic units:
0.11530786E+07
0.76568427E+03
0.20783691E+03
0.72452744E+02
0.23473240E+02
0.13809147E+02
0.89486971E+01
0.52005715E+01
0.28833313E+01
0.15612210E+01
0.85122782E+00
0.49284220E+00
0.29168937E+00
0.17681541E+00
0.11369017E+00
0.74852072E-01
0.48826188E-01
0.32287762E-01
0.21393923E-01
0.13988225E-01
0.92142522E-02
0.61183516E-02
0.40110275E-02
0.26187696E-02
0.17185282E-02
0.11222330E-02
0.73009601E-03
0.47799860E-03
0.31035236E-03
0.20182047E-03
0.13185544E-03
0.85445128E-04
0.55564997E-04
0.36205718E-04
0.23558932E-04
0.15259930E-04
0.98657356E-05
0.63901125E-05
0.41724370E-05
0.27231690E-05
0.17833828E-05
0.11753887E-05
0.77750701E-06
0.52316653E-06
0.35468415E-06
0.24035418E-06
0.16500381E-06
0.11524681E-06
0.80905195E-07
0.57187037E-07
0.40658076E-07
0.28939976E-07
0.20714324E-07
0.14835942E-07
0.10533713E-07
0.73856654E-08
0.50776108E-08
0.34107996E-08
0.22234063E-08
0.13945957E-08
0.82930718E-09
0.46166479E-09
0.24188851E-09
0.12727829E-09
0.86725883E-10
0.95327884E-10
0.13382200E-09
0.18867230E-09
0.24862218E-09
0.30649050E-09
0.35587222E-09
0.39513653E-09
0.42271189E-09
0.43806780E-09
0.44109269E-09
0.43410700E-09
0.41740783E-09
0.39449879E-09
0.36550055E-09
0.33298284E-09
0.29840685E-09
0.26224553E-09
0.22683373E-09
0.19256956E-09
0.16098999E-09
0.13221536E-09
0.10628673E-09
0.83709512E-10
0.64469020E-10
0.48373444E-10
0.35672840E-10
0.25884085E-10
0.18765999E-10
0.14127304E-10
0.11634227E-10
0.10922600E-10
0.11719773E-10
0.13682390E-10
0.16591705E-10
0.20126904E-10
