atomic number =   60
effective nuclear charge =   60
electron count =   12
net charge =   48
basis set = approximate basis set limit (UGBS)      
exchange correlation functional = PW91PW91            
cutoff radius (picometer) =  300
number of shells =   50
prepared by = Thomas A. Manz      
prepared date = July 2010           
net magnetization =    0
density in atomic units:
0.30733562E+05
0.47045132E+02
0.78497515E+01
0.14385948E+01
0.18647034E+00
0.17101537E-01
0.14526086E-02
0.13947510E-03
0.10627822E-04
0.74931074E-06
0.84631402E-07
0.13446091E-07
0.81254736E-08
0.12071385E-07
0.99066417E-08
0.43010262E-08
0.71066941E-09
0.25612193E-09
0.11468438E-08
0.18330351E-08
0.17797593E-08
0.12261562E-08
0.60447891E-09
0.18139279E-09
0.19281427E-10
0.49507419E-10
0.15838504E-09
0.25542327E-09
0.30145289E-09
0.28881733E-09
0.23506286E-09
0.16378776E-09
0.96554438E-10
0.44869469E-10
0.13741873E-10
0.17684876E-11
0.34332934E-11
0.12997151E-10
0.25365892E-10
0.36301517E-10
0.43609779E-10
0.46651998E-10
0.45510835E-10
0.41149459E-10
0.34679558E-10
0.27332865E-10
0.20001653E-10
0.13436067E-10
0.80940758E-11
0.41940132E-11
