atomic number =   74
effective nuclear charge =   74
electron count =   28
net charge =   46
basis set = approximate basis set limit (UGBS)      
exchange correlation functional = PW91PW91            
cutoff radius (picometer) =  500
number of shells =  100
prepared by = Thomas A. Manz      
prepared date = July 2010           
net magnetization =    0
density in atomic units:
0.41922431E+06
0.44933282E+03
0.98448219E+02
0.11760997E+02
0.99620748E+00
0.11116040E+00
0.11516654E-01
0.93149347E-03
0.85100444E-04
0.99618719E-05
0.11225599E-05
0.26711859E-06
0.13039700E-06
0.33368632E-07
0.54842566E-08
0.18856340E-07
0.31351568E-07
0.27579716E-07
0.15348439E-07
0.49309135E-08
0.88868468E-09
0.14724878E-08
0.36001426E-08
0.50540390E-08
0.50885420E-08
0.40330073E-08
0.25643176E-08
0.12864668E-08
0.45213253E-09
0.11536559E-09
0.14225857E-09
0.35466546E-09
0.59635369E-09
0.76990081E-09
0.83699264E-09
0.79846302E-09
0.68191541E-09
0.52539767E-09
0.36584044E-09
0.22481940E-09
0.11791472E-09
0.49864932E-10
0.17166851E-10
0.12742846E-10
0.26860580E-10
0.51448550E-10
0.78163032E-10
0.10126681E-09
0.11826798E-09
0.12730947E-09
0.12833710E-09
0.12225206E-09
0.11093539E-09
0.96255372E-10
0.79779933E-10
0.63055602E-10
0.47224898E-10
0.33341135E-10
0.21942016E-10
0.13218777E-10
0.70761053E-11
0.33114986E-11
0.16067483E-11
0.15391601E-11
0.26984788E-11
0.46441869E-11
0.70400105E-11
0.96180850E-11
0.12087100E-10
0.14276006E-10
0.16036013E-10
0.17325542E-10
0.18111202E-10
0.18439113E-10
0.18259101E-10
0.17696278E-10
0.16812395E-10
0.15660357E-10
0.14324789E-10
0.12880361E-10
0.11366350E-10
0.98430491E-11
0.83617089E-11
0.69584937E-11
0.56810277E-11
0.45352207E-11
0.35219436E-11
0.26519375E-11
0.19251757E-11
0.13320895E-11
0.87644535E-12
0.53963713E-12
0.30997329E-12
0.17788623E-12
0.12660913E-12
0.14341500E-12
0.21415072E-12
0.32767457E-12
0.47261945E-12
0.63767372E-12
