atomic number =   97
effective nuclear charge =   97
electron count =   86
net charge =   11
basis set = approximate basis set limit (UGBS)      
exchange correlation functional = PW91PW91            
cutoff radius (picometer) =  400
number of shells =   75
prepared by = Thomas A. Manz      
prepared date = July 2010           
net magnetization =    0
density in atomic units:
0.14014742E+06
0.44628714E+03
0.15640746E+03
0.67551346E+02
0.23444487E+02
0.11677936E+02
0.75008035E+01
0.45738640E+01
0.26277692E+01
0.15385284E+01
0.97221410E+00
0.67008299E+00
0.49379924E+00
0.38032576E+00
0.29724070E+00
0.23195176E+00
0.17924565E+00
0.13730112E+00
0.10473008E+00
0.79468176E-01
0.59999436E-01
0.45003209E-01
0.33499572E-01
0.24901651E-01
0.18485812E-01
0.13694979E-01
0.10137507E-01
0.75164735E-02
0.55271760E-02
0.40629162E-02
0.30153927E-02
0.22351325E-02
0.16440828E-02
0.12068234E-02
0.89366641E-03
0.66218164E-03
0.48855942E-03
0.36213626E-03
0.27000892E-03
0.20068631E-03
0.14876017E-03
0.11102235E-03
0.83002305E-04
0.62006366E-04
0.46434590E-04
0.34783745E-04
0.26081505E-04
0.19543020E-04
0.14596944E-04
0.10908748E-04
0.81533235E-05
0.60974689E-05
0.45448096E-05
0.33840327E-05
0.25270372E-05
0.18787748E-05
0.13913336E-05
0.10302716E-05
0.76324147E-06
0.56373125E-06
0.41522043E-06
0.30611127E-06
0.22520749E-06
0.16506895E-06
0.12064244E-06
0.87956288E-07
0.64149411E-07
0.46574954E-07
0.33700118E-07
0.24362839E-07
0.17605448E-07
0.12622658E-07
0.90155226E-08
0.64338219E-08
0.45955533E-08
