atomic number =   95
effective nuclear charge =   95
electron count =   60
net charge =   35
basis set = approximate basis set limit (UGBS)      
exchange correlation functional = PW91PW91            
cutoff radius (picometer) =  300
number of shells =   50
prepared by = Thomas A. Manz      
prepared date = July 2010           
net magnetization =    0
density in atomic units:
0.13152203E+06
0.31047067E+03
0.10929266E+03
0.39320690E+02
0.99328547E+01
0.19234555E+01
0.36473063E+00
0.78676119E-01
0.16118513E-01
0.34469052E-02
0.76877227E-03
0.17002522E-03
0.40962106E-04
0.91605043E-05
0.20069228E-05
0.44991947E-06
0.96318153E-07
0.23658206E-07
0.12118342E-07
0.13319386E-07
0.13290518E-07
0.10362518E-07
0.64579253E-08
0.33192791E-08
0.16304794E-08
0.12165259E-08
0.14951385E-08
0.19085065E-08
0.21462159E-08
0.20938342E-08
0.18009774E-08
0.13797876E-08
0.95235286E-09
0.59336347E-09
0.34497011E-09
0.21140725E-09
0.16779315E-09
0.18340493E-09
0.22889435E-09
0.27827643E-09
0.31510114E-09
0.33206607E-09
0.32703212E-09
0.30318967E-09
0.26592581E-09
0.22154578E-09
0.17525226E-09
0.13185722E-09
0.94477363E-10
0.65032216E-10
