atomic number =   69
effective nuclear charge =   69
electron count =   48
net charge =   21
basis set = approximate basis set limit (UGBS)      
exchange correlation functional = PW91PW91            
cutoff radius (picometer) =  500
number of shells =  100
prepared by = Thomas A. Manz      
prepared date = July 2010           
net magnetization =    0
density in atomic units:
0.33696753E+06
0.45502100E+03
0.11152740E+03
0.28528833E+02
0.18353640E+02
0.12350108E+02
0.69172225E+01
0.33914931E+01
0.16739054E+01
0.85987693E+00
0.47295332E+00
0.28933096E+00
0.18562922E+00
0.12275220E+00
0.84992051E-01
0.59537377E-01
0.41033000E-01
0.28411083E-01
0.19587863E-01
0.13283866E-01
0.90409731E-02
0.61850483E-02
0.41761347E-02
0.28072894E-02
0.18960552E-02
0.12752147E-02
0.85518957E-03
0.57726994E-03
0.38695746E-03
0.25995242E-03
0.17548693E-03
0.11763245E-03
0.79133184E-04
0.53330132E-04
0.35885660E-04
0.24029223E-04
0.16042424E-04
0.10711792E-04
0.71890818E-05
0.48089255E-05
0.32140697E-05
0.21508506E-05
0.14360141E-05
0.96846156E-06
0.65306534E-06
0.43634657E-06
0.29289177E-06
0.19848045E-06
0.13386820E-06
0.90311637E-07
0.60981520E-07
0.41090797E-07
0.27852852E-07
0.18947951E-07
0.12891264E-07
0.87668539E-08
0.59421121E-08
0.40433914E-08
0.27569673E-08
0.18906012E-08
0.13002754E-08
0.89854790E-09
0.62649747E-09
0.43989451E-09
0.31203068E-09
0.22625282E-09
0.16709666E-09
0.12600886E-09
0.98087052E-10
0.78853729E-10
0.65943827E-10
0.57045743E-10
0.50773621E-10
0.46288185E-10
0.42881275E-10
0.40117677E-10
0.37747947E-10
0.35472136E-10
0.33272704E-10
0.31062965E-10
0.28787918E-10
0.26468369E-10
0.24115591E-10
0.21778386E-10
0.19483812E-10
0.17297868E-10
0.15208853E-10
0.13238813E-10
0.11433060E-10
0.97472872E-11
0.82889381E-11
0.69840067E-11
0.58499165E-11
0.49103373E-11
0.41392224E-11
0.35124093E-11
0.30456414E-11
0.26955378E-11
0.24614369E-11
0.23240778E-11
