atomic number =   86
effective nuclear charge =   86
electron count =    4
net charge =   82
basis set = approximate basis set limit (UGBS)      
exchange correlation functional = PW91PW91            
cutoff radius (picometer) =  300
number of shells =   50
prepared by = Thomas A. Manz      
prepared date = July 2010           
net magnetization =    0
density in atomic units:
0.93177367E+05
0.14095306E+01
0.11781807E-02
0.23462599E-04
0.60586867E-05
0.15516905E-05
0.11639202E-05
0.59876839E-06
0.46629943E-07
0.20890144E-06
0.13801753E-06
0.16507373E-07
0.10067358E-07
0.33554809E-07
0.32362035E-07
0.15142502E-07
0.26167870E-08
0.43636275E-09
0.31784415E-08
0.55919531E-08
0.56493206E-08
0.39918078E-08
0.20127147E-08
0.61883437E-09
0.53471467E-10
0.11917282E-09
0.45637746E-09
0.77018730E-09
0.92812102E-09
0.90035135E-09
0.73899192E-09
0.51843035E-09
0.30752728E-09
0.14364532E-09
0.43772822E-10
0.41929273E-11
0.79445244E-11
0.37092104E-10
0.75600325E-10
0.11000720E-09
0.13334821E-09
0.14339929E-09
0.14037356E-09
0.12724040E-09
0.10738858E-09
0.84754120E-10
0.62050018E-10
0.41686855E-10
0.25073854E-10
0.12929107E-10
