atomic number =   97
effective nuclear charge =   97
electron count =   80
net charge =   17
basis set = approximate basis set limit (UGBS)      
exchange correlation functional = PW91PW91            
cutoff radius (picometer) =  500
number of shells =  100
prepared by = Thomas A. Manz      
prepared date = July 2010           
net magnetization =    0
density in atomic units:
0.97234494E+06
0.72617651E+03
0.18073460E+03
0.77859879E+02
0.25623089E+02
0.13067003E+02
0.86083717E+01
0.55999689E+01
0.34798679E+01
0.20547793E+01
0.11848252E+01
0.70499676E+00
0.42224970E+00
0.25778171E+00
0.16729820E+00
0.11184129E+00
0.74667096E-01
0.50838117E-01
0.34859627E-01
0.23714297E-01
0.16292185E-01
0.11296422E-01
0.77547180E-02
0.53084265E-02
0.36518660E-02
0.25014563E-02
0.17075855E-02
0.11717746E-02
0.79783483E-03
0.54382149E-03
0.37207396E-03
0.25267171E-03
0.17212796E-03
0.11745963E-03
0.80081314E-04
0.54385164E-04
0.36885343E-04
0.25063158E-04
0.17154051E-04
0.11732114E-04
0.80426171E-05
0.55361975E-05
0.38154035E-05
0.26623436E-05
0.18631567E-05
0.12967818E-05
0.90876853E-06
0.64385017E-06
0.45478259E-06
0.32148944E-06
0.22743549E-06
0.16041365E-06
0.11338278E-06
0.80155338E-07
0.56291785E-07
0.39208210E-07
0.26974446E-07
0.18351850E-07
0.12316407E-07
0.81292315E-08
0.52405809E-08
0.32831486E-08
0.19942050E-08
0.11633304E-08
0.65398303E-09
0.36771555E-09
0.22397248E-09
0.17140800E-09
0.17537016E-09
0.20990117E-09
0.25692060E-09
0.30510344E-09
0.34901743E-09
0.38279155E-09
0.40596654E-09
0.41750309E-09
0.41747933E-09
0.40873707E-09
0.39315470E-09
0.37002942E-09
0.34281714E-09
0.31257943E-09
0.28046540E-09
0.24825805E-09
0.21678261E-09
0.18711731E-09
0.15946931E-09
0.13419314E-09
0.11210129E-09
0.92367655E-10
0.76160953E-10
0.62433975E-10
0.51657206E-10
0.43668343E-10
0.37953800E-10
0.34235465E-10
0.32359504E-10
0.32096333E-10
0.33068069E-10
0.34838559E-10
