atomic number =   50
effective nuclear charge =   50
electron count =   48
net charge =    2
basis set = approximate basis set limit (UGBS)      
exchange correlation functional = PW91PW91            
cutoff radius (picometer) =  400
number of shells =   75
prepared by = Thomas A. Manz      
prepared date = July 2010           
net magnetization =    0
density in atomic units:
0.17203902E+05
0.18848343E+03
0.78663902E+02
0.34081963E+02
0.11880888E+02
0.54530892E+01
0.40419154E+01
0.32577481E+01
0.24606225E+01
0.17461196E+01
0.12017338E+01
0.81269944E+00
0.54630738E+00
0.37210962E+00
0.25695154E+00
0.18014631E+00
0.12828396E+00
0.93393318E-01
0.69783345E-01
0.53292483E-01
0.41406259E-01
0.32567132E-01
0.25820157E-01
0.20675469E-01
0.16679658E-01
0.13522500E-01
0.11011259E-01
0.90091638E-02
0.73503377E-02
0.60093580E-02
0.49496745E-02
0.40771551E-02
0.33428469E-02
0.27374316E-02
0.22540034E-02
0.18552326E-02
0.15217580E-02
0.12507476E-02
0.10308699E-02
0.84687636E-03
0.69374463E-03
0.57030574E-03
0.46891154E-03
0.38509315E-03
0.31661175E-03
0.26024893E-03
0.21409313E-03
0.17601094E-03
0.14448637E-03
0.11870183E-03
0.97579803E-04
0.80329177E-04
0.66033324E-04
0.54305590E-04
0.44780954E-04
0.36851725E-04
0.30292013E-04
0.24930559E-04
0.20538137E-04
0.16911670E-04
0.13911509E-04
0.11461790E-04
0.94433526E-05
0.77700051E-05
0.63898929E-05
0.52552982E-05
0.43273376E-05
0.35581211E-05
0.29220803E-05
0.24037734E-05
0.19809620E-05
0.16268972E-05
0.13344243E-05
0.10953353E-05
0.90039293E-06
