atomic number =   73
effective nuclear charge =   73
electron count =   48
net charge =   25
basis set = approximate basis set limit (UGBS)      
exchange correlation functional = PW91PW91            
cutoff radius (picometer) =  500
number of shells =  100
prepared by = Thomas A. Manz      
prepared date = July 2010           
net magnetization =    0
density in atomic units:
0.40439034E+06
0.49233136E+03
0.10381809E+03
0.30800722E+02
0.20357656E+02
0.12171897E+02
0.61072016E+01
0.27583892E+01
0.13118968E+01
0.67705131E+00
0.38241789E+00
0.23883381E+00
0.15321136E+00
0.98880455E-01
0.65733030E-01
0.43751646E-01
0.28381795E-01
0.18447081E-01
0.11918682E-01
0.75488444E-02
0.48007490E-02
0.30728702E-02
0.19370600E-02
0.12151763E-02
0.76700444E-03
0.48222300E-03
0.30254139E-03
0.19158589E-03
0.12057507E-03
0.76218545E-04
0.48551032E-04
0.30721043E-04
0.19538717E-04
0.12458268E-04
0.79263264E-05
0.50085423E-05
0.31462455E-05
0.19698746E-05
0.12351555E-05
0.76738769E-06
0.47300037E-06
0.28980304E-06
0.17549596E-06
0.10659204E-06
0.64092745E-07
0.37675058E-07
0.22057558E-07
0.12957356E-07
0.74949691E-08
0.43174664E-08
0.24917686E-08
0.14505014E-08
0.86768848E-09
0.53904065E-09
0.34781331E-09
0.23411570E-09
0.16381407E-09
0.11925555E-09
0.90501454E-10
0.72407740E-10
0.62003937E-10
0.57578071E-10
0.57785093E-10
0.61492526E-10
0.67628611E-10
0.74933712E-10
0.82612417E-10
0.89972640E-10
0.96221073E-10
0.10098111E-09
0.10373417E-09
0.10476612E-09
0.10387457E-09
0.10102773E-09
0.96612746E-10
0.90812247E-10
0.84002728E-10
0.76470205E-10
0.68546460E-10
0.60488975E-10
0.52400879E-10
0.44626851E-10
0.37218617E-10
0.30449449E-10
0.24395787E-10
0.19090337E-10
0.14522768E-10
0.10696156E-10
0.75936115E-11
0.51519752E-11
0.33656955E-11
0.21439484E-11
0.14198561E-11
0.11350210E-11
0.12112144E-11
0.15813461E-11
0.21765708E-11
0.29458844E-11
0.38315575E-11
0.47868619E-11
