atomic number =  100
effective nuclear charge =  100
electron count =   46
net charge =   54
basis set = approximate basis set limit (UGBS)      
exchange correlation functional = PW91PW91            
cutoff radius (picometer) =  300
number of shells =   50
prepared by = Thomas A. Manz      
prepared date = July 2010           
net magnetization =    0
density in atomic units:
0.15236453E+06
0.23876543E+03
0.72257141E+02
0.20948626E+02
0.38720775E+01
0.49685779E+00
0.58987364E-01
0.80961315E-02
0.96492318E-03
0.11014350E-03
0.13710189E-04
0.19536756E-05
0.38402038E-06
0.13918897E-06
0.86565066E-07
0.41227896E-07
0.10281029E-07
0.28992342E-08
0.77626474E-08
0.13136357E-07
0.13701829E-07
0.10262220E-07
0.57446154E-08
0.22899584E-08
0.63754785E-09
0.49001364E-09
0.10953848E-08
0.17710354E-08
0.21667728E-08
0.21663591E-08
0.18499480E-08
0.13705392E-08
0.88316665E-09
0.48083931E-09
0.21345442E-09
0.83461640E-10
0.58916025E-10
0.10192132E-09
0.17646445E-09
0.25089381E-09
0.30626718E-09
0.33507985E-09
0.33511119E-09
0.31126215E-09
0.27051089E-09
0.22112034E-09
0.16939075E-09
0.12112193E-09
0.80112944E-10
0.48529566E-10
