atomic number =   50
effective nuclear charge =   50
electron count =   48
net charge =    2
basis set = approximate basis set limit (UGBS)      
exchange correlation functional = PW91PW91            
cutoff radius (picometer) =  500
number of shells =  100
prepared by = Thomas A. Manz      
prepared date = July 2010           
net magnetization =    0
density in atomic units:
0.11656277E+06
0.30976358E+03
0.92079865E+02
0.39011524E+02
0.13230584E+02
0.62730694E+01
0.43920431E+01
0.35815134E+01
0.28674302E+01
0.21505523E+01
0.15367876E+01
0.10862042E+01
0.74883962E+00
0.51055747E+00
0.35842305E+00
0.25543058E+00
0.18198785E+00
0.13297804E+00
0.99071823E-01
0.74598402E-01
0.57531271E-01
0.45303416E-01
0.35910927E-01
0.28738813E-01
0.23277007E-01
0.18946592E-01
0.15489852E-01
0.12759592E-01
0.10510356E-01
0.86915446E-02
0.72172028E-02
0.59835766E-02
0.49750097E-02
0.41439654E-02
0.34519639E-02
0.28704032E-02
0.23848920E-02
0.19821653E-02
0.16515794E-02
0.13736491E-02
0.11422049E-02
0.94976474E-03
0.78866759E-03
0.65767311E-03
0.54798712E-03
0.45438347E-03
0.37751082E-03
0.31480400E-03
0.26181396E-03
0.21773179E-03
0.18107040E-03
0.15040561E-03
0.12526248E-03
0.10447493E-03
0.87090273E-04
0.72553557E-04
0.60361730E-04
0.50231138E-04
0.41823245E-04
0.34858687E-04
0.29045277E-04
0.24190871E-04
0.20163729E-04
0.16801199E-04
0.13988356E-04
0.11676567E-04
0.97455604E-05
0.81118087E-05
0.67518499E-05
0.56151271E-05
0.46792547E-05
0.38994326E-05
0.32463829E-05
0.27056062E-05
0.22508552E-05
0.18719553E-05
0.15571776E-05
0.12943166E-05
0.10763785E-05
0.89632402E-06
0.74491584E-06
0.61832469E-06
0.51286224E-06
0.42532363E-06
0.35322816E-06
0.29357267E-06
0.24369240E-06
0.20223476E-06
0.16773831E-06
0.13879550E-06
0.11503116E-06
0.95198004E-07
0.78624723E-07
0.65031315E-07
0.53708138E-07
0.44311122E-07
0.36591402E-07
0.30151725E-07
0.24797583E-07
0.20400167E-07
