atomic number =  105
effective nuclear charge =  105
electron count =   46
net charge =   59
basis set = approximate basis set limit (UGBS)      
exchange correlation functional = PW91PW91            
cutoff radius (picometer) =  300
number of shells =   50
prepared by = Thomas A. Manz      
prepared date = July 2010           
net magnetization =    0
density in atomic units:
0.17446772E+06
0.23750705E+03
0.73880005E+02
0.16975788E+02
0.25304043E+01
0.25888664E+00
0.24537209E-01
0.28963843E-02
0.29656268E-03
0.26253798E-04
0.23634307E-05
0.22539651E-06
0.50022408E-07
0.11031064E-06
0.12126021E-06
0.71362749E-07
0.22999489E-07
0.56919194E-08
0.89599563E-08
0.16636113E-07
0.19156184E-07
0.15801769E-07
0.99448725E-08
0.47487463E-08
0.17162605E-08
0.84912605E-09
0.13110426E-08
0.21609183E-08
0.28144713E-08
0.29965830E-08
0.27252680E-08
0.21654856E-08
0.15197432E-08
0.93119251E-09
0.49375048E-09
0.23640381E-09
0.13284573E-09
0.14015286E-09
0.21221100E-09
0.30435834E-09
0.38532136E-09
0.43910775E-09
0.45707860E-09
0.44172216E-09
0.40000453E-09
0.34158848E-09
0.27499530E-09
0.20874905E-09
0.14882168E-09
0.99541167E-10
