atomic number =   89
effective nuclear charge =   89
electron count =    4
net charge =   85
basis set = approximate basis set limit (UGBS)      
exchange correlation functional = PW91PW91            
cutoff radius (picometer) =  300
number of shells =   50
prepared by = Thomas A. Manz      
prepared date = July 2010            
net magnetization =    0
density in atomic units:
0.10331498E+06
0.10445076E+01
0.73964585E-03
0.28232664E-04
0.69317534E-05
0.17963355E-05
0.13324055E-05
0.68956609E-06
0.53279543E-07
0.23915572E-06
0.15844275E-06
0.19024258E-07
0.11476890E-07
0.38394770E-07
0.37078234E-07
0.17368027E-07
0.30081686E-08
0.49697790E-09
0.36319587E-08
0.63977796E-08
0.64671348E-08
0.45716866E-08
0.23063105E-08
0.70975570E-09
0.61491881E-10
0.13596589E-09
0.52162186E-09
0.88088337E-09
0.10618042E-08
0.10302630E-08
0.84592633E-09
0.59346611E-09
0.35212153E-09
0.16452460E-09
0.50159717E-10
0.48150624E-11
0.90661428E-11
0.42396798E-10
0.86440508E-10
0.12581708E-09
0.15254430E-09
0.16398244E-09
0.16064138E-09
0.14557835E-09
0.12289196E-09
0.96997313E-10
0.71018975E-10
0.47705086E-10
0.28704483E-10
0.14801776E-10
