atomic number =   92
effective nuclear charge =   92
electron count =   18
net charge =   74
basis set = approximate basis set limit (UGBS)      
exchange correlation functional = PW91PW91            
cutoff radius (picometer) =  300
number of shells =   50
prepared by = Thomas A. Manz      
prepared date = July 2010           
net magnetization =    0
density in atomic units:
0.11799005E+06
0.11046481E+03
0.54204669E+01
0.12135248E+00
0.23189138E-02
0.42664611E-04
0.21058529E-05
0.98098724E-06
0.99566833E-07
0.30795883E-06
0.22558815E-06
0.39205961E-07
0.16588793E-07
0.49048190E-07
0.50312671E-07
0.26122452E-07
0.63284942E-08
0.14172161E-08
0.45984874E-08
0.81792617E-08
0.86275200E-08
0.64480190E-08
0.35534213E-08
0.13470698E-08
0.30985398E-09
0.24474073E-09
0.65937128E-09
0.11097795E-08
0.13711128E-08
0.13711284E-08
0.11652334E-08
0.85471580E-09
0.54097749E-09
0.28421704E-09
0.11600606E-09
0.37028158E-10
0.25818753E-10
0.57415264E-10
0.10830690E-09
0.15793647E-09
0.19436244E-09
0.21292966E-09
0.21255181E-09
0.19671562E-09
0.16999145E-09
0.13786904E-09
0.10444606E-09
0.73510718E-10
0.47437144E-10
0.27571020E-10
