atomic number =   55
effective nuclear charge =   55
electron count =   30
net charge =   25
basis set = approximate basis set limit (UGBS)      
exchange correlation functional = PW91PW91            
cutoff radius (picometer) =  300
number of shells =   50
prepared by = Thomas A. Manz      
prepared date = July 2010           
net magnetization =    0
density in atomic units:
0.23397922E+05
0.15802654E+03
0.58992466E+02
0.15513563E+02
0.38832989E+01
0.12806476E+01
0.58284366E+00
0.28500265E+00
0.12937959E+00
0.56394920E-01
0.23154672E-01
0.90384074E-02
0.36845850E-02
0.14466005E-02
0.56277332E-03
0.21583166E-03
0.80588143E-04
0.31731717E-04
0.12311441E-04
0.47955882E-05
0.18810737E-05
0.73290482E-06
0.28348188E-06
0.10687390E-06
0.38436546E-07
0.13069951E-07
0.42071395E-08
0.13832879E-08
0.53293037E-09
0.31079339E-09
0.24538543E-09
0.19911126E-09
0.14983657E-09
0.10220821E-09
0.64475959E-10
0.40621520E-10
0.29442528E-10
0.27818924E-10
0.32039496E-10
0.38375279E-10
0.44085235E-10
0.47664431E-10
0.48297973E-10
0.46140945E-10
0.41718750E-10
0.35868985E-10
0.29315453E-10
0.22808191E-10
0.16895851E-10
0.11974435E-10
