atomic number =   62
effective nuclear charge =   62
electron count =    2
net charge =   60
basis set = approximate basis set limit (UGBS)      
exchange correlation functional = PW91PW91            
cutoff radius (picometer) =  300
number of shells =   50
prepared by = Thomas A. Manz      
prepared date = July 2010           
net magnetization =    0
density in atomic units:
0.29167549E+05
0.53225114E-03
0.13947554E-04
0.46794376E-05
0.10782428E-05
0.28299181E-06
0.20695941E-06
0.10799711E-06
0.82325009E-08
0.37113761E-07
0.24694517E-07
0.29834106E-08
0.17666112E-08
0.59495919E-08
0.57587046E-08
0.27024920E-08
0.46990234E-09
0.76320388E-10
0.56137206E-09
0.99104480E-09
0.10028349E-08
0.70950079E-09
0.35824510E-09
0.11042994E-09
0.96132668E-11
0.20944361E-10
0.80654781E-10
0.13636309E-09
0.16446890E-09
0.15964637E-09
0.13111903E-09
0.92027469E-10
0.54617307E-10
0.25539576E-10
0.77970182E-11
0.75174600E-12
0.13961704E-11
0.65517830E-11
0.13372550E-10
0.19475805E-10
0.23619514E-10
0.25408014E-10
0.24878606E-10
0.22551953E-10
0.19040436E-10
0.15029290E-10
0.11005523E-10
0.73956535E-11
0.44500298E-11
0.22956073E-11
