atomic number =   80
effective nuclear charge =   80
electron count =   46
net charge =   34
basis set = approximate basis set limit (UGBS)      
exchange correlation functional = PW91PW91            
cutoff radius (picometer) =  300
number of shells =   50
prepared by = Thomas A. Manz      
prepared date = July 2010           
net magnetization =    0
density in atomic units:
0.78033258E+05
0.25004953E+03
0.49184025E+02
0.27286316E+02
0.11922286E+02
0.36988947E+01
0.10208232E+01
0.29023814E+00
0.78116722E-01
0.21366300E-01
0.56650573E-02
0.14145393E-02
0.38632835E-03
0.10509981E-03
0.30161711E-04
0.91104421E-05
0.27252054E-05
0.85527137E-06
0.24984098E-06
0.69576906E-07
0.20020288E-07
0.67292740E-08
0.27235814E-08
0.11661239E-08
0.61510291E-09
0.65532907E-09
0.96034747E-09
0.12573248E-08
0.14061043E-08
0.13615226E-08
0.11666644E-08
0.89486807E-09
0.62227073E-09
0.39421141E-09
0.23617722E-09
0.15040881E-09
0.12113627E-09
0.12927803E-09
0.15644355E-09
0.18642159E-09
0.20891917E-09
0.21907870E-09
0.21551373E-09
0.20010728E-09
0.17605498E-09
0.14749113E-09
0.11757885E-09
0.89399564E-10
0.64947103E-10
0.45523044E-10
