atomic number =   94
effective nuclear charge =   94
electron count =    2
net charge =   92
basis set = approximate basis set limit (UGBS)      
exchange correlation functional = PW91PW91            
cutoff radius (picometer) =  300
number of shells =   50
prepared by = Thomas A. Manz      
prepared date = July 2010           
net magnetization =    0
density in atomic units:
0.10476604E+06
0.81811304E-03
0.68315952E-04
0.21972313E-04
0.48013558E-05
0.13310956E-05
0.91213269E-06
0.49158069E-06
0.36089730E-07
0.16352064E-06
0.11041313E-06
0.13624694E-07
0.76159612E-08
0.26146591E-07
0.25481704E-07
0.12024351E-07
0.21145408E-08
0.32846914E-09
0.24529403E-08
0.43561950E-08
0.44205888E-08
0.31343388E-08
0.15863150E-08
0.49112775E-09
0.43318713E-10
0.90879172E-10
0.35309053E-09
0.59869537E-09
0.72321754E-09
0.70274814E-09
0.57762978E-09
0.40574563E-09
0.24103791E-09
0.11287191E-09
0.34568570E-10
0.33679654E-11
0.60622969E-11
0.28667594E-10
0.58644874E-10
0.85528334E-10
0.10379214E-09
0.11168492E-09
0.10940496E-09
0.99202653E-10
0.83785562E-10
0.66158447E-10
0.48457502E-10
0.32573222E-10
0.19609701E-10
0.10125531E-10
