atomic number =   96
effective nuclear charge =   96
electron count =   80
net charge =   16
basis set = approximate basis set limit (UGBS)      
exchange correlation functional = PW91PW91            
cutoff radius (picometer) =  300
number of shells =   50
prepared by = Thomas A. Manz      
prepared date = July 2010           
net magnetization =    0
density in atomic units:
0.13599998E+06
0.32290637E+03
0.11868880E+03
0.39358681E+02
0.14421465E+02
0.80760708E+01
0.48644629E+01
0.27795091E+01
0.14863490E+01
0.79484922E+00
0.42870560E+00
0.23924617E+00
0.14498664E+00
0.89610994E-01
0.56737728E-01
0.36100049E-01
0.22917258E-01
0.14889287E-01
0.95755821E-02
0.61436160E-02
0.39420724E-02
0.25222739E-02
0.16174424E-02
0.10350436E-02
0.65895822E-03
0.41786721E-03
0.26489818E-03
0.16961890E-03
0.10759159E-03
0.67973815E-04
0.43196258E-04
0.27402946E-04
0.17496161E-04
0.11174441E-04
0.71583322E-05
0.46365449E-05
0.30268050E-05
0.19802085E-05
0.12923434E-05
0.85055217E-06
0.56374171E-06
0.37124030E-06
0.24552151E-06
0.16234576E-06
0.10647158E-06
0.69660963E-07
0.44992962E-07
0.28681601E-07
0.17958705E-07
0.11045983E-07
