atomic number =   95
effective nuclear charge =   95
electron count =   36
net charge =   59
basis set = approximate basis set limit (UGBS)      
exchange correlation functional = PW91PW91            
cutoff radius (picometer) =  300
number of shells =   50
prepared by = Thomas A. Manz      
prepared date = July 2010           
net magnetization =    0
density in atomic units:
0.13140652E+06
0.22438326E+03
0.36522545E+02
0.11031682E+02
0.21642225E+01
0.28236333E+00
0.32508805E-01
0.40700873E-02
0.43607052E-03
0.47636178E-04
0.61040355E-05
0.81867768E-06
0.13288840E-06
0.80569350E-07
0.72907284E-07
0.37963563E-07
0.93910133E-08
0.24001496E-08
0.71744100E-08
0.12376373E-07
0.12868123E-07
0.95000932E-08
0.51570761E-08
0.19092539E-08
0.43236520E-09
0.39559039E-09
0.10456669E-08
0.17198304E-08
0.20927500E-08
0.20677988E-08
0.17380026E-08
0.12595045E-08
0.78517143E-09
0.40342688E-09
0.15863198E-09
0.48793622E-10
0.39635989E-10
0.92635954E-10
0.17207588E-09
0.24728802E-09
0.30085398E-09
0.32649108E-09
0.32336039E-09
0.29692337E-09
0.25472519E-09
0.20500671E-09
0.15388997E-09
0.10710845E-09
0.68058295E-10
0.38719278E-10
