atomic number =  100
effective nuclear charge =  100
electron count =   18
net charge =   82
basis set = approximate basis set limit (UGBS)      
exchange correlation functional = PW91PW91            
cutoff radius (picometer) =  300
number of shells =   50
prepared by = Thomas A. Manz      
prepared date = July 2010           
net magnetization =    0
density in atomic units:
0.15023073E+06
0.98926872E+02
0.27152879E+01
0.35050035E-01
0.38493963E-03
0.74487934E-05
0.25490779E-05
0.12947642E-05
0.12014739E-06
0.44166501E-06
0.29826595E-06
0.41134783E-07
0.22758668E-07
0.70958201E-07
0.69351778E-07
0.33480895E-07
0.65748234E-08
0.13167710E-08
0.67491328E-08
0.11833183E-07
0.12082790E-07
0.86781444E-08
0.45019295E-08
0.14933345E-08
0.21530545E-09
0.28812142E-09
0.96706176E-09
0.16249115E-08
0.19698119E-08
0.19272588E-08
0.15981243E-08
0.11367430E-08
0.68862771E-09
0.33521691E-09
0.11487441E-09
0.22429586E-10
0.23378143E-10
0.80349394E-10
0.15940978E-09
0.23183243E-09
0.28204417E-09
0.30491024E-09
0.30019826E-09
0.27378333E-09
0.23277966E-09
0.18529027E-09
0.13716175E-09
0.93568937E-10
0.57673526E-10
0.31078775E-10
