atomic number =   82
effective nuclear charge =   82
electron count =   68
net charge =   14
basis set = approximate basis set limit (UGBS)      
exchange correlation functional = PW91PW91            
cutoff radius (picometer) =  300
number of shells =   50
prepared by = Thomas A. Manz      
prepared date = July 2010           
net magnetization =    0
density in atomic units:
0.84429625E+05
0.28169159E+03
0.81322403E+02
0.44208549E+02
0.18509874E+02
0.70379910E+01
0.33480420E+01
0.19418918E+01
0.11523895E+01
0.67981482E+00
0.38371748E+00
0.20815985E+00
0.11521612E+00
0.61953440E-01
0.33170477E-01
0.17556673E-01
0.91617722E-02
0.49334611E-02
0.26191841E-02
0.13871539E-02
0.73538790E-03
0.38837196E-03
0.20573565E-03
0.10877949E-03
0.57193763E-04
0.30000119E-04
0.15782991E-04
0.84571748E-05
0.44884723E-05
0.23714827E-05
0.12627606E-05
0.66855785E-06
0.35551577E-06
0.18824150E-06
0.99727657E-07
0.53765323E-07
0.29577157E-07
0.16673129E-07
0.97209965E-08
0.60198344E-08
0.39811687E-08
0.27777252E-08
0.20423316E-08
0.15580298E-08
0.12074036E-08
0.94036301E-09
0.72475348E-09
0.54803212E-09
0.40328774E-09
0.28756530E-09
