atomic number =   91
effective nuclear charge =   91
electron count =   80
net charge =   11
basis set = approximate basis set limit (UGBS)      
exchange correlation functional = PW91PW91            
cutoff radius (picometer) =  300
number of shells =   50
prepared by = Thomas A. Manz      
prepared date = July 2010           
net magnetization =    0
density in atomic units:
0.11614708E+06
0.30722556E+03
0.10912648E+03
0.43272675E+02
0.15117455E+02
0.75689106E+01
0.48644094E+01
0.30956271E+01
0.18298272E+01
0.10562692E+01
0.60037941E+00
0.34555081E+00
0.21253785E+00
0.13272110E+00
0.85020378E-01
0.54994553E-01
0.35697870E-01
0.23793506E-01
0.15758282E-01
0.10434392E-01
0.69159637E-02
0.45730649E-02
0.30293816E-02
0.20020914E-02
0.13164126E-02
0.86203194E-03
0.56419615E-03
0.37259914E-03
0.24385049E-03
0.15894824E-03
0.10412889E-03
0.68054032E-04
0.44714059E-04
0.29341298E-04
0.19279558E-04
0.12775726E-04
0.85095726E-05
0.56659392E-05
0.37545810E-05
0.25022512E-05
0.16756450E-05
0.11132767E-05
0.74125631E-06
0.49353497E-06
0.32623589E-06
0.21523989E-06
0.14067118E-06
0.91132456E-07
0.58432988E-07
0.37166082E-07
