atomic number =   22
effective nuclear charge =   22
electron count =    2
net charge =   20
basis set = approximate basis set limit (UGBS)      
exchange correlation functional = PW91PW91            
cutoff radius (picometer) =  500
number of shells =  100
prepared by = Thomas A. Manz      
prepared date = July 2010           
net magnetization =    0
density in atomic units:
0.72721318E+04
0.27120527E+02
0.35311007E+00
0.67163380E-02
0.99958997E-04
0.25589272E-05
0.73539418E-07
0.74897342E-08
0.24824829E-08
0.25105446E-09
0.23358346E-09
0.48939675E-09
0.29959935E-09
0.56872583E-10
0.73203908E-11
0.53344756E-10
0.84131119E-10
0.69364001E-10
0.35298965E-10
0.90045185E-11
0.47019815E-12
0.35837730E-11
0.98632370E-11
0.13642993E-10
0.13383451E-10
0.10266126E-10
0.62243682E-11
0.28604662E-11
0.77981100E-12
0.50716826E-13
0.26382222E-12
0.92440953E-12
0.16115234E-11
0.20781558E-11
0.22376942E-11
0.21073195E-11
0.17705571E-11
0.13353217E-11
0.90241616E-12
0.52807704E-12
0.25160874E-12
0.82744331E-13
0.94747191E-14
0.10435448E-13
0.58757266E-13
0.13237931E-12
0.20863586E-12
0.27266115E-12
0.31833488E-12
0.34127261E-12
0.34193725E-12
0.32343626E-12
0.29104207E-12
0.24997991E-12
0.20469284E-12
0.15924164E-12
0.11678520E-12
0.80002242E-13
0.50232147E-13
0.27897388E-13
0.12600142E-13
0.37170919E-14
0.30549768E-15
0.11827567E-14
0.52078576E-14
0.11168106E-13
0.18172706E-13
0.25491104E-13
0.32381707E-13
0.38403095E-13
0.43152266E-13
0.46540669E-13
0.48537417E-13
0.49222677E-13
0.48580806E-13
0.46916210E-13
0.44363490E-13
0.41116341E-13
0.37410460E-13
0.33440769E-13
0.29316871E-13
0.25188556E-13
0.21205472E-13
0.17467131E-13
0.14077723E-13
0.11060911E-13
0.84143279E-14
0.61659442E-14
0.43065891E-14
0.28092345E-14
0.16812468E-14
0.87041879E-15
0.34338065E-15
0.71655023E-16
0.10461708E-16
0.12373864E-15
0.37336310E-15
0.73000868E-15
0.11639735E-14
0.16431695E-14
