atomic number =   94
effective nuclear charge =   94
electron count =   30
net charge =   64
basis set = approximate basis set limit (UGBS)      
exchange correlation functional = PW91PW91            
cutoff radius (picometer) =  300
number of shells =   50
prepared by = Thomas A. Manz      
prepared date = July 2010           
net magnetization =    0
density in atomic units:
0.12734036E+06
0.21510831E+03
0.16320406E+02
0.28738196E+01
0.48758268E+00
0.56404907E-01
0.55281692E-02
0.58330048E-03
0.56385961E-04
0.71040836E-05
0.12670645E-05
0.15634716E-06
0.23468175E-07
0.68505642E-07
0.73278315E-07
0.37876330E-07
0.87991818E-08
0.20803670E-08
0.72181683E-08
0.12565814E-07
0.13017020E-07
0.95493791E-08
0.51339706E-08
0.18629500E-08
0.39914583E-09
0.38935050E-09
0.10628169E-08
0.17492554E-08
0.21233288E-08
0.20923123E-08
0.17533821E-08
0.12662521E-08
0.78576712E-09
0.40079806E-09
0.15532885E-09
0.46532767E-10
0.39244875E-10
0.94257754E-10
0.17540767E-09
0.25165348E-09
0.30567224E-09
0.33125486E-09
0.32745359E-09
0.30028599E-09
0.25712529E-09
0.20660530E-09
0.15482145E-09
0.10749588E-09
0.68078931E-10
0.38536421E-10
