atomic number =   22
effective nuclear charge =   22
electron count =   18
net charge =    4
basis set = approximate basis set limit (UGBS)      
exchange correlation functional = PW91PW91            
cutoff radius (picometer) =  400
number of shells =   75
prepared by = Thomas A. Manz      
prepared date = July 2010           
net magnetization =    0
density in atomic units:
0.12774640E+04
0.72534073E+02
0.31862614E+02
0.11889713E+02
0.41570210E+01
0.19205496E+01
0.14065146E+01
0.11846838E+01
0.96956843E+00
0.75183028E+00
0.56131786E+00
0.40561455E+00
0.28561220E+00
0.19883522E+00
0.13683400E+00
0.93145259E-01
0.62695980E-01
0.42046495E-01
0.28307158E-01
0.19115034E-01
0.12918123E-01
0.87191593E-02
0.58556139E-02
0.39461269E-02
0.26652152E-02
0.18021271E-02
0.12215215E-02
0.83207467E-03
0.56261750E-03
0.38096510E-03
0.26164614E-03
0.17963670E-03
0.12223540E-03
0.82972103E-04
0.56918747E-04
0.39065661E-04
0.26645759E-04
0.18265782E-04
0.12607267E-04
0.86641103E-05
0.59330760E-05
0.40985856E-05
0.28391007E-05
0.19662748E-05
0.13671299E-05
0.95192036E-06
0.66422729E-06
0.46355021E-06
0.32238367E-06
0.22448640E-06
0.15631034E-06
0.10890979E-06
0.75510812E-07
0.52231744E-07
0.36207084E-07
0.24925896E-07
0.17039635E-07
0.11628096E-07
0.79216589E-08
0.53670286E-08
0.36147243E-08
0.24338314E-08
0.16325721E-08
0.10895783E-08
0.72507722E-09
0.48179039E-09
0.32160236E-09
0.21445944E-09
0.14350336E-09
0.97126987E-10
0.66776404E-10
0.46312145E-10
0.32634066E-10
0.23509250E-10
0.17325016E-10
