atomic number =  105
effective nuclear charge =  105
electron count =   78
net charge =   27
basis set = approximate basis set limit (UGBS)      
exchange correlation functional = PW91PW91            
cutoff radius (picometer) =  300
number of shells =   50
prepared by = Thomas A. Manz      
prepared date = July 2010           
net magnetization =    0
density in atomic units:
0.17504536E+06
0.35679352E+03
0.12292104E+03
0.32820084E+02
0.15016653E+02
0.83314934E+01
0.40101538E+01
0.17936637E+01
0.73774487E+00
0.29573613E+00
0.11299756E+00
0.41696880E-01
0.16564647E-01
0.65175621E-02
0.25917788E-02
0.10205669E-02
0.38813069E-03
0.15336550E-03
0.59168022E-04
0.22983830E-04
0.91548063E-05
0.37263230E-05
0.15561666E-05
0.65418726E-06
0.27209802E-06
0.11308037E-06
0.49399585E-07
0.25362906E-07
0.15862454E-07
0.11521358E-07
0.86658725E-08
0.61672925E-08
0.39921759E-08
0.22609219E-08
0.10953430E-08
0.49137860E-09
0.32396599E-09
0.44631027E-09
0.71654022E-09
0.10063240E-08
0.12346962E-08
0.13650016E-08
0.13832807E-08
0.13039275E-08
0.11524594E-08
0.96019004E-09
0.75272655E-09
0.55409133E-09
0.38088196E-09
0.24358948E-09
