atomic number =  106
effective nuclear charge =  106
electron count =   10
net charge =   96
basis set = approximate basis set limit (UGBS)      
exchange correlation functional = PW91PW91            
cutoff radius (picometer) =  300
number of shells =   50
prepared by = Thomas A. Manz      
prepared date = July 2010           
net magnetization =    0
density in atomic units:
0.17006488E+06
0.57245970E+00
0.25006817E-03
0.56059827E-04
0.12499520E-04
0.35017233E-05
0.23746186E-05
0.12918822E-05
0.10264053E-06
0.42612078E-06
0.29067860E-06
0.38369713E-07
0.20548374E-07
0.68169726E-07
0.66864992E-07
0.32042838E-07
0.60151981E-08
0.10503526E-08
0.64113292E-08
0.11361148E-07
0.11591095E-07
0.82865190E-08
0.42554187E-08
0.13707636E-08
0.16341202E-09
0.25513838E-09
0.92182861E-09
0.15590464E-08
0.18891642E-08
0.18433786E-08
0.15231229E-08
0.10776330E-08
0.64725192E-09
0.30974467E-09
0.10112215E-09
0.15496956E-10
0.19092297E-10
0.75743821E-10
0.15271816E-09
0.22254731E-09
0.27061409E-09
0.29204156E-09
0.28685079E-09
0.26097338E-09
0.22123905E-09
0.17545848E-09
0.12924022E-09
0.87587486E-10
0.53402095E-10
0.28240014E-10
