atomic number =   91
effective nuclear charge =   91
electron count =   46
net charge =   45
basis set = approximate basis set limit (UGBS)      
exchange correlation functional = PW91PW91            
cutoff radius (picometer) =  300
number of shells =   50
prepared by = Thomas A. Manz      
prepared date = July 2010           
net magnetization =    0
density in atomic units:
0.11580932E+06
0.24525879E+03
0.62974739E+02
0.26769581E+02
0.73116183E+01
0.14087554E+01
0.24733807E+00
0.46656214E-01
0.80165276E-02
0.14139817E-02
0.25615285E-03
0.44256671E-04
0.81246262E-05
0.13206760E-05
0.22990990E-06
0.54892187E-07
0.11659245E-07
0.31895742E-08
0.77520843E-08
0.13327213E-07
0.14286701E-07
0.11105413E-07
0.65974324E-08
0.29736154E-08
0.10907083E-08
0.74568651E-09
0.12291658E-08
0.18555429E-08
0.22481796E-08
0.22646549E-08
0.19658795E-08
0.14933161E-08
0.10002179E-08
0.58224991E-09
0.29442135E-09
0.14397360E-09
0.10203333E-09
0.13204052E-09
0.19826808E-09
0.26854502E-09
0.32281966E-09
0.35204215E-09
0.35341063E-09
0.33077310E-09
0.29053651E-09
0.24093019E-09
0.18818264E-09
0.13823608E-09
0.95103890E-10
0.61225053E-10
