atomic number =  101
effective nuclear charge =  101
electron count =   86
net charge =   15
basis set = approximate basis set limit (UGBS)      
exchange correlation functional = PW91PW91            
cutoff radius (picometer) =  500
number of shells =  100
prepared by = Thomas A. Manz      
prepared date = July 2010           
net magnetization =    0
density in atomic units:
0.10914235E+07
0.75357709E+03
0.20000829E+03
0.74678726E+02
0.24287420E+02
0.13876168E+02
0.90476351E+01
0.53932600E+01
0.31186523E+01
0.18255558E+01
0.11384927E+01
0.78922880E+00
0.57990718E+00
0.44121745E+00
0.34677386E+00
0.27355769E+00
0.21245772E+00
0.16483295E+00
0.12702323E+00
0.96521430E-01
0.73391214E-01
0.55909108E-01
0.42144857E-01
0.31639501E-01
0.23817934E-01
0.17865323E-01
0.13370330E-01
0.10051716E-01
0.75188559E-02
0.56350869E-02
0.42385729E-02
0.31738400E-02
0.23841427E-02
0.17946748E-02
0.13507940E-02
0.10141962E-02
0.76087011E-03
0.57161780E-03
0.43157663E-03
0.32544258E-03
0.24562146E-03
0.18570764E-03
0.14032639E-03
0.10686881E-03
0.81412436E-04
0.61647683E-04
0.46852827E-04
0.35837573E-04
0.27315929E-04
0.20822086E-04
0.15872909E-04
0.12073776E-04
0.92140644E-05
0.70439914E-05
0.53754443E-05
0.40938125E-05
0.31086070E-05
0.23588909E-05
0.17895937E-05
0.13579413E-05
0.10284573E-05
0.77768379E-06
0.58830415E-06
0.44415512E-06
0.33468106E-06
0.25293122E-06
0.19089765E-06
0.14335788E-06
0.10754427E-06
0.80476767E-07
0.60364798E-07
0.45264965E-07
0.33853855E-07
0.25329568E-07
0.18884521E-07
0.14056953E-07
0.10450865E-07
0.77662099E-08
0.57708989E-08
0.42886965E-08
0.31830383E-08
0.23589299E-08
0.17460660E-08
0.12895693E-08
0.95672303E-09
0.71135769E-09
0.52676619E-09
0.39192188E-09
0.29060421E-09
0.21612123E-09
0.16180429E-09
0.12255195E-09
0.94469155E-10
0.75261193E-10
0.62454306E-10
0.54628701E-10
0.50706658E-10
0.49885467E-10
0.51344904E-10
0.54631327E-10
