atomic number =   90
effective nuclear charge =   90
electron count =   62
net charge =   28
basis set = approximate basis set limit (UGBS)      
exchange correlation functional = PW91PW91            
cutoff radius (picometer) =  300
number of shells =   50
prepared by = Thomas A. Manz      
prepared date = July 2010           
net magnetization =    0
density in atomic units:
0.11229105E+06
0.29924472E+03
0.10001226E+03
0.43178486E+02
0.13840486E+02
0.39434698E+01
0.12970479E+01
0.50065917E+00
0.19215870E+00
0.74407347E-01
0.27772101E-01
0.99028330E-02
0.37162034E-02
0.13397804E-02
0.47750445E-03
0.16760279E-03
0.57064990E-04
0.20696521E-04
0.74678655E-05
0.27558754E-05
0.10463166E-05
0.40084731E-06
0.15238275E-06
0.54870746E-07
0.17654806E-07
0.51096798E-08
0.20242408E-08
0.19610886E-08
0.23924092E-08
0.25124134E-08
0.22271296E-08
0.16981109E-08
0.11275011E-08
0.64432515E-09
0.31866554E-09
0.15784767E-09
0.12448748E-09
0.17276638E-09
0.25897862E-09
0.34467615E-09
0.40736020E-09
0.43745349E-09
0.43317791E-09
0.40033113E-09
0.34746420E-09
0.28455557E-09
0.21936204E-09
0.15886109E-09
0.10754642E-09
0.68053639E-10
