atomic number =   86
effective nuclear charge =   86
electron count =   10
net charge =   76
basis set = approximate basis set limit (UGBS)      
exchange correlation functional = PW91PW91            
cutoff radius (picometer) =  300
number of shells =   50
prepared by = Thomas A. Manz      
prepared date = July 2010           
net magnetization =    0
density in atomic units:
0.93324914E+05
0.45465126E+01
0.36293403E-02
0.25009738E-04
0.60836160E-05
0.15714684E-05
0.11655584E-05
0.60363800E-06
0.47669300E-07
0.20917413E-06
0.13883931E-06
0.16954594E-07
0.10128702E-07
0.33584062E-07
0.32475036E-07
0.15266334E-07
0.26879856E-08
0.45802337E-09
0.31797129E-08
0.55965068E-08
0.56640634E-08
0.40115737E-08
0.20308275E-08
0.63120270E-09
0.59686145E-10
0.12114419E-09
0.45650195E-09
0.77031737E-09
0.92911973E-09
0.90245889E-09
0.74172662E-09
0.52137961E-09
0.31015321E-09
0.14570549E-09
0.45167561E-10
0.50033892E-11
0.83213974E-11
0.37195080E-10
0.75601546E-10
0.11000971E-09
0.13338497E-09
0.14350901E-09
0.14061742E-09
0.12756086E-09
0.10778964E-09
0.85173146E-10
0.62432920E-10
0.42029050E-10
0.25363113E-10
0.13161270E-10
