atomic number =   55
effective nuclear charge =   55
electron count =   28
net charge =   27
basis set = approximate basis set limit (UGBS)      
exchange correlation functional = PW91PW91            
cutoff radius (picometer) =  300
number of shells =   50
prepared by = Thomas A. Manz      
prepared date = July 2010           
net magnetization =    0
density in atomic units:
0.23287215E+05
0.15643646E+03
0.58397530E+02
0.15291280E+02
0.31053705E+01
0.48806396E+00
0.73333651E-01
0.12390887E-01
0.19262956E-02
0.30982951E-03
0.52323187E-04
0.86707496E-05
0.15530554E-05
0.23551854E-06
0.32430087E-07
0.63031522E-08
0.17781857E-08
0.60055122E-09
0.77301499E-09
0.13496205E-08
0.16178202E-08
0.14343415E-08
0.10036898E-08
0.56948463E-09
0.27425412E-09
0.14669335E-09
0.13977690E-09
0.18475632E-09
0.23090330E-09
0.24992272E-09
0.23625785E-09
0.19824646E-09
0.14970505E-09
0.10182995E-09
0.63050822E-10
0.37213732E-10
0.23484067E-10
0.19293104E-10
0.21449105E-10
0.26610365E-10
0.32097474E-10
0.36295661E-10
0.38201671E-10
0.37698584E-10
0.35095003E-10
0.30996483E-10
0.26008215E-10
0.20778448E-10
0.15817082E-10
0.11520355E-10
