atomic number =   60
effective nuclear charge =   60
electron count =   46
net charge =   14
basis set = approximate basis set limit (UGBS)      
exchange correlation functional = PW91PW91            
cutoff radius (picometer) =  300
number of shells =   50
prepared by = Thomas A. Manz      
prepared date = July 2010           
net magnetization =    0
density in atomic units:
0.31039537E+05
0.19792783E+03
0.57527050E+02
0.16241833E+02
0.10465849E+02
0.70243092E+01
0.39512451E+01
0.20501206E+01
0.98208374E+00
0.45893377E+00
0.20631309E+00
0.90618029E-01
0.42255834E-01
0.19457862E-01
0.90228179E-02
0.41532321E-02
0.18782619E-02
0.88582205E-03
0.41340440E-03
0.19427991E-03
0.92335147E-04
0.43991320E-04
0.21070129E-04
0.10040563E-04
0.47229446E-05
0.22009783E-05
0.10255015E-05
0.49026374E-06
0.23502547E-06
0.11491993E-06
0.58583620E-07
0.30860328E-07
0.16931262E-07
0.95124628E-08
0.54255547E-08
0.31349565E-08
0.18072061E-08
0.10255282E-08
0.56920840E-09
0.31899844E-09
0.18855613E-09
0.12423239E-09
0.97091793E-10
0.87392329E-10
0.84020887E-10
0.81392358E-10
0.77001766E-10
0.70324649E-10
0.61800572E-10
0.52395515E-10
