atomic number =   96
effective nuclear charge =   96
electron count =   36
net charge =   60
basis set = approximate basis set limit (UGBS)      
exchange correlation functional = PW91PW91            
cutoff radius (picometer) =  300
number of shells =   50
prepared by = Thomas A. Manz      
prepared date = July 2010           
net magnetization =    0
density in atomic units:
0.13547333E+06
0.22221925E+03
0.36668137E+02
0.10653230E+02
0.19933983E+01
0.24721570E+00
0.27146045E-01
0.32716666E-02
0.33387958E-03
0.34205514E-04
0.41935846E-05
0.55496292E-06
0.99751290E-07
0.79500971E-07
0.72571964E-07
0.36801435E-07
0.85624574E-08
0.20719255E-08
0.70594215E-08
0.12234050E-07
0.12646528E-07
0.92547827E-08
0.49526370E-08
0.17746262E-08
0.36099820E-09
0.36228223E-09
0.10248660E-08
0.16957443E-08
0.20598099E-08
0.20277466E-08
0.16961035E-08
0.12214157E-08
0.75434559E-09
0.38110382E-09
0.14411806E-09
0.40145953E-10
0.34660521E-10
0.89345149E-10
0.16899893E-09
0.24345292E-09
0.29599684E-09
0.32059994E-09
0.31680197E-09
0.29017966E-09
0.24807958E-09
0.19887192E-09
0.14857181E-09
0.10275342E-09
0.64664933E-10
0.36198922E-10
