atomic number =   93
effective nuclear charge =   93
electron count =   28
net charge =   65
basis set = approximate basis set limit (UGBS)      
exchange correlation functional = PW91PW91            
cutoff radius (picometer) =  300
number of shells =   50
prepared by = Thomas A. Manz      
prepared date = July 2010           
net magnetization =    0
density in atomic units:
0.12233783E+06
0.21336125E+03
0.96883221E+01
0.23707598E+00
0.53027100E-02
0.10583165E-03
0.35850298E-05
0.10298922E-05
0.11845911E-06
0.32270390E-06
0.23601584E-06
0.44189633E-07
0.19451129E-07
0.51540326E-07
0.52389307E-07
0.27466269E-07
0.70610984E-08
0.18788995E-08
0.50006594E-08
0.85775325E-08
0.89860475E-08
0.67265953E-08
0.37433305E-08
0.14662069E-08
0.38723255E-09
0.30575331E-09
0.71868145E-09
0.11714925E-08
0.14330085E-08
0.14285573E-08
0.12143105E-08
0.89339336E-09
0.56948124E-09
0.30419547E-09
0.12983535E-09
0.47169341E-10
0.34246977E-10
0.65469567E-10
0.11670878E-09
0.16689358E-09
0.20366989E-09
0.22227692E-09
0.22160243E-09
0.20501972E-09
0.17731011E-09
0.14406991E-09
0.10952784E-09
0.77534916E-10
0.50505884E-10
0.29892193E-10
