atomic number =   95
effective nuclear charge =   95
electron count =   30
net charge =   65
basis set = approximate basis set limit (UGBS)      
exchange correlation functional = PW91PW91            
cutoff radius (picometer) =  300
number of shells =   50
prepared by = Thomas A. Manz      
prepared date = July 2010           
net magnetization =    0
density in atomic units:
0.13134781E+06
0.21235266E+03
0.15830153E+02
0.27469735E+01
0.44524056E+00
0.48881635E-01
0.45559881E-02
0.45896595E-03
0.41979933E-04
0.52016339E-05
0.99391787E-06
0.12782931E-06
0.23169017E-07
0.68707294E-07
0.72594695E-07
0.37311526E-07
0.85486915E-08
0.19502902E-08
0.70674306E-08
0.12370117E-07
0.12818866E-07
0.93927710E-08
0.50338436E-08
0.18098664E-08
0.37276052E-09
0.37046521E-09
0.10400514E-08
0.17195049E-08
0.20891533E-08
0.20578523E-08
0.17229472E-08
0.12423297E-08
0.76881224E-09
0.39004114E-09
0.14907442E-09
0.42892672E-10
0.36624048E-10
0.91526287E-10
0.17191168E-09
0.24725261E-09
0.30048625E-09
0.32553987E-09
0.32177130E-09
0.29483230E-09
0.25233457E-09
0.20250741E-09
0.15150575E-09
0.10496590E-09
0.66250755E-10
0.37283138E-10
