atomic number =  105
effective nuclear charge =  105
electron count =   86
net charge =   19
basis set = approximate basis set limit (UGBS)      
exchange correlation functional = PW91PW91            
cutoff radius (picometer) =  500
number of shells =  100
prepared by = Thomas A. Manz      
prepared date = July 2010           
net magnetization =    0
density in atomic units:
0.12160405E+07
0.77945514E+03
0.21674376E+03
0.70245918E+02
0.23861193E+02
0.14594302E+02
0.90602770E+01
0.50005794E+01
0.27802234E+01
0.16575676E+01
0.10932350E+01
0.79583055E+00
0.59649736E+00
0.44826815E+00
0.34054601E+00
0.25647581E+00
0.18825740E+00
0.13760205E+00
0.99687256E-01
0.70955448E-01
0.50560791E-01
0.36124662E-01
0.25483860E-01
0.17891441E-01
0.12606055E-01
0.88462848E-02
0.61931070E-02
0.43627392E-02
0.30561564E-02
0.21467905E-02
0.15156873E-02
0.10643117E-02
0.75032964E-03
0.53010922E-03
0.37421205E-03
0.26313274E-03
0.18459689E-03
0.12954690E-03
0.91335271E-04
0.64212261E-04
0.45120858E-04
0.31741336E-04
0.22288685E-04
0.15792535E-04
0.11190662E-04
0.78672665E-05
0.55547939E-05
0.39551664E-05
0.28038041E-05
0.19882380E-05
0.14102515E-05
0.99773922E-06
0.70864866E-06
0.50443168E-06
0.35809404E-06
0.25340913E-06
0.17855812E-06
0.12558000E-06
0.88266468E-07
0.61996154E-07
0.43454911E-07
0.30384982E-07
0.21279131E-07
0.14893195E-07
0.10434065E-07
0.73858653E-08
0.52656772E-08
0.37790224E-08
0.27575644E-08
0.20457411E-08
0.15575492E-08
0.12173647E-08
0.97346609E-09
0.79855672E-09
0.66767514E-09
0.56772981E-09
0.48825471E-09
0.42179765E-09
0.36685763E-09
0.31794994E-09
0.27515232E-09
0.23598362E-09
0.20085979E-09
0.16939347E-09
0.14154711E-09
0.11682542E-09
0.95061362E-10
0.76259173E-10
0.60158940E-10
0.46507301E-10
0.35477531E-10
0.26671252E-10
0.19772286E-10
0.14717104E-10
0.11308368E-10
0.92043855E-11
0.82714556E-11
0.82630786E-11
0.90008539E-11
0.10315616E-10
