atomic number =   63
effective nuclear charge =   63
electron count =    4
net charge =   59
basis set = approximate basis set limit (UGBS)      
exchange correlation functional = PW91PW91            
cutoff radius (picometer) =  300
number of shells =   50
prepared by = Thomas A. Manz      
prepared date = July 2010           
net magnetization =    0
density in atomic units:
0.34809988E+05
0.96051626E+01
0.72679877E-01
0.29866176E-03
0.41141316E-05
0.45661048E-06
0.31210041E-06
0.16040615E-06
0.12840170E-07
0.57306810E-07
0.37544059E-07
0.44220378E-08
0.28260183E-08
0.92755474E-08
0.88965990E-08
0.41427577E-08
0.70828754E-09
0.12360504E-09
0.88571472E-09
0.15493555E-08
0.15607711E-08
0.11004627E-08
0.55344535E-09
0.16935688E-09
0.14431276E-10
0.33539345E-10
0.12715627E-09
0.21388569E-09
0.25730074E-09
0.24927849E-09
0.20442502E-09
0.14327896E-09
0.84880755E-10
0.39587143E-10
0.12013794E-10
0.11365840E-11
0.22384512E-11
0.10350149E-10
0.21027501E-10
0.30565245E-10
0.37013281E-10
0.39787403E-10
0.38924884E-10
0.35263337E-10
0.29755479E-10
0.23474613E-10
0.17179333E-10
0.11536316E-10
0.69350983E-11
0.35718785E-11
