atomic number =   91
effective nuclear charge =   91
electron count =   68
net charge =   23
basis set = approximate basis set limit (UGBS)      
exchange correlation functional = PW91PW91            
cutoff radius (picometer) =  300
number of shells =   50
prepared by = Thomas A. Manz      
prepared date = July 2010           
net magnetization =    0
density in atomic units:
0.11608573E+06
0.30417062E+03
0.10522460E+03
0.42849522E+02
0.14315677E+02
0.56303906E+01
0.28158255E+01
0.14706779E+01
0.70653260E+00
0.32285658E+00
0.13833261E+00
0.56410968E-01
0.23991173E-01
0.98399082E-02
0.39890916E-02
0.15847886E-02
0.60986535E-03
0.24611712E-03
0.98003220E-04
0.39438797E-04
0.16151571E-04
0.66560442E-05
0.27592569E-05
0.11290155E-05
0.44701559E-06
0.16986449E-06
0.62020078E-07
0.22729369E-07
0.86099989E-08
0.39136103E-08
0.23235174E-08
0.15704186E-08
0.10451575E-08
0.62662198E-09
0.32995084E-09
0.16682383E-09
0.11623285E-09
0.14491983E-09
0.21666804E-09
0.29643854E-09
0.36108613E-09
0.39927397E-09
0.40657080E-09
0.38617254E-09
0.34462513E-09
0.29079672E-09
0.23170084E-09
0.17440566E-09
0.12362064E-09
0.82636509E-10
