atomic number =  106
effective nuclear charge =  106
electron count =   18
net charge =   88
basis set = approximate basis set limit (UGBS)      
exchange correlation functional = PW91PW91            
cutoff radius (picometer) =  400
number of shells =   75
prepared by = Thomas A. Manz      
prepared date = July 2010           
net magnetization =    0
density in atomic units:
0.17651059E+06
0.15478749E+03
0.54692373E+01
0.90234824E-01
0.13195444E-02
0.24952013E-04
0.16277642E-05
0.33818008E-05
0.14868061E-05
0.12379448E-06
0.54678117E-06
0.49834864E-06
0.14488819E-06
0.10549768E-07
0.56082058E-07
0.10042227E-06
0.83450466E-07
0.39393051E-07
0.87989287E-08
0.10316592E-08
0.63987118E-08
0.13637142E-07
0.16525368E-07
0.14389783E-07
0.96713126E-08
0.49105928E-08
0.16501136E-08
0.23384619E-09
0.24356273E-09
0.99782949E-09
0.18434599E-08
0.24310771E-08
0.26185660E-08
0.24194124E-08
0.19776918E-08
0.14332802E-08
0.90247976E-09
0.48021170E-09
0.19848680E-09
0.48218329E-10
0.10620873E-10
0.51390985E-10
0.13369815E-09
0.22773039E-09
0.31023081E-09
0.36871958E-09
0.39790549E-09
0.39797080E-09
0.37333034E-09
0.33072103E-09
0.27760522E-09
0.22098844E-09
0.16548320E-09
0.11584536E-09
0.75022898E-10
0.43231040E-10
0.20828981E-10
0.74234299E-11
0.16083218E-11
0.17520501E-11
0.62535272E-11
0.13478737E-10
0.22099921E-10
0.31042429E-10
0.39338682E-10
0.46360173E-10
0.51697747E-10
0.55226160E-10
0.57004328E-10
0.57022671E-10
0.55492836E-10
0.52714028E-10
0.48924038E-10
0.44430338E-10
0.39567953E-10
