atomic number =   69
effective nuclear charge =   69
electron count =   48
net charge =   21
basis set = approximate basis set limit (UGBS)      
exchange correlation functional = PW91PW91            
cutoff radius (picometer) =  400
number of shells =   75
prepared by = Thomas A. Manz      
prepared date = July 2010           
net magnetization =    0
density in atomic units:
0.48799793E+05
0.32321002E+03
0.81488945E+02
0.25784914E+02
0.17457539E+02
0.10404580E+02
0.52968030E+01
0.24756615E+01
0.11500243E+01
0.58422029E+00
0.33092573E+00
0.20376472E+00
0.13182226E+00
0.88362209E-01
0.59914801E-01
0.40560856E-01
0.27190192E-01
0.18114986E-01
0.12067771E-01
0.80301585E-02
0.53276182E-02
0.35185465E-02
0.23050529E-02
0.15119655E-02
0.99198718E-03
0.65020117E-03
0.42635735E-03
0.28045310E-03
0.18256906E-03
0.11875703E-03
0.78298486E-04
0.51510906E-04
0.33495162E-04
0.21683372E-04
0.14185229E-04
0.92764722E-05
0.60165057E-05
0.39205056E-05
0.25719676E-05
0.16773467E-05
0.10881447E-05
0.71214822E-06
0.46703499E-06
0.30587285E-06
0.20100713E-06
0.13223546E-06
0.87150255E-07
0.57446552E-07
0.37738342E-07
0.24859089E-07
0.16401959E-07
0.10871864E-07
0.71894486E-08
0.47611550E-08
0.31805578E-08
0.21224991E-08
0.14178525E-08
0.95494790E-09
0.64982697E-09
0.44562923E-09
0.30896921E-09
0.21922950E-09
0.15891742E-09
0.11849249E-09
0.91568378E-10
0.73574563E-10
0.61762928E-10
0.53599007E-10
0.48042778E-10
0.44020867E-10
0.40886860E-10
0.38305865E-10
0.35839363E-10
0.33465855E-10
0.31115107E-10
