atomic number =   74
effective nuclear charge =   74
electron count =   10
net charge =   64
basis set = approximate basis set limit (UGBS)      
exchange correlation functional = PW91PW91            
cutoff radius (picometer) =  500
number of shells =  100
prepared by = Thomas A. Manz      
prepared date = July 2010           
net magnetization =    0
density in atomic units:
0.40799612E+06
0.11761386E+03
0.38899493E+00
0.15970098E-02
0.81975240E-05
0.39025344E-05
0.10320282E-05
0.42383010E-06
0.56938717E-06
0.97986948E-07
0.42168889E-07
0.11209053E-06
0.78751079E-07
0.18712031E-07
0.15818319E-08
0.10429205E-07
0.18419396E-07
0.16206629E-07
0.88128171E-08
0.25756335E-08
0.22978187E-09
0.66821049E-09
0.20096267E-08
0.29162031E-08
0.29519920E-08
0.23279949E-08
0.14575555E-08
0.70388462E-09
0.21726448E-09
0.27400563E-10
0.52450880E-10
0.18559278E-09
0.33360026E-09
0.43917769E-09
0.48033788E-09
0.45837636E-09
0.39000622E-09
0.29821789E-09
0.20493046E-09
0.12288411E-09
0.61155789E-10
0.22387958E-10
0.43932878E-11
0.28590791E-11
0.12036306E-10
0.27158742E-10
0.43319529E-10
0.57165335E-10
0.67307583E-10
0.72693546E-10
0.73288979E-10
0.69740082E-10
0.63120467E-10
0.54531008E-10
0.44949634E-10
0.35239159E-10
0.26092132E-10
0.18110912E-10
0.11590414E-10
0.66453700E-11
0.32038729E-11
0.11453801E-11
0.27600161E-12
0.34676697E-12
0.11155771E-11
0.23239730E-11
0.37760008E-11
0.53216199E-11
0.67890173E-11
0.80794945E-11
0.91093470E-11
0.98599679E-11
0.10314616E-10
0.10482390E-10
0.10384755E-10
0.10055842E-10
0.95349622E-11
0.88604098E-11
0.80802665E-11
0.72451502E-11
0.63690429E-11
0.54912121E-11
0.46400939E-11
0.38379022E-11
0.31074845E-11
0.24558344E-11
0.18826700E-11
0.13929410E-11
0.98573439E-12
0.65621423E-12
0.40565178E-12
0.22333212E-12
0.10223921E-12
0.36531891E-13
0.16622429E-13
0.34865865E-13
0.83168342E-13
0.15510188E-12
0.24404074E-12
0.34379460E-12
