atomic number =   62
effective nuclear charge =   62
electron count =   48
net charge =   14
basis set = approximate basis set limit (UGBS)      
exchange correlation functional = PW91PW91            
cutoff radius (picometer) =  500
number of shells =  100
prepared by = Thomas A. Manz      
prepared date = July 2010           
net magnetization =    0
density in atomic units:
0.23745534E+06
0.39317899E+03
0.11872407E+03
0.29463001E+02
0.14227147E+02
0.11032424E+02
0.75821714E+01
0.44639153E+01
0.24988201E+01
0.13671106E+01
0.75590390E+00
0.44766787E+00
0.27538902E+00
0.17686801E+00
0.12178236E+00
0.86536460E-01
0.61469298E-01
0.44282813E-01
0.31955540E-01
0.22800056E-01
0.16341740E-01
0.11767025E-01
0.83736470E-02
0.59309709E-02
0.42128572E-02
0.29767239E-02
0.20949261E-02
0.14802699E-02
0.10378612E-02
0.72809512E-03
0.51235413E-03
0.35797109E-03
0.25073846E-03
0.17590816E-03
0.12327504E-03
0.86054795E-04
0.59971546E-04
0.41843854E-04
0.29366609E-04
0.20577538E-04
0.14427692E-04
0.10140814E-04
0.71216814E-05
0.50510566E-05
0.35847661E-05
0.25252120E-05
0.17867153E-05
0.12745224E-05
0.90493063E-06
0.64223542E-06
0.45560060E-06
0.32196795E-06
0.22812594E-06
0.16176740E-06
0.11418372E-06
0.80178523E-07
0.55889195E-07
0.38773695E-07
0.26764509E-07
0.18380392E-07
0.12508246E-07
0.84253333E-08
0.56275375E-08
0.37069907E-08
0.24035227E-08
0.15419999E-08
0.97043307E-09
0.59439775E-09
0.35418585E-09
0.20445649E-09
0.11525914E-09
0.63731159E-10
0.35412340E-10
0.21369470E-10
0.15342278E-10
0.13575681E-10
0.13735217E-10
0.14454148E-10
0.15005821E-10
0.15087650E-10
0.14605263E-10
0.13624633E-10
0.12250435E-10
0.10634813E-10
0.89375998E-11
0.72746809E-11
0.57150088E-11
0.43478398E-11
0.32176321E-11
0.23414348E-11
0.17467193E-11
0.14152674E-11
0.13309739E-11
0.14680719E-11
0.17975235E-11
0.22814259E-11
0.28878007E-11
0.35864241E-11
0.43421855E-11
0.51168518E-11
