atomic number =   11
effective nuclear charge =   11
electron count =    4
net charge =    7
basis set = approximate basis set limit (UGBS)      
exchange correlation functional = PW91PW91            
cutoff radius (picometer) =  300
number of shells =   50
prepared by = Thomas A. Manz      
prepared date = May 2010            
net magnetization =    0
density in atomic units:
0.20557376E+03
0.16640560E+02
0.23315694E+01
0.10304006E+01
0.78053504E+00
0.54516304E+00
0.35229731E+00
0.22208956E+00
0.13434277E+00
0.80509625E-01
0.47016751E-01
0.26989484E-01
0.16022470E-01
0.93770726E-02
0.55124285E-02
0.32208816E-02
0.18647501E-02
0.11088188E-02
0.65199850E-03
0.38339759E-03
0.22640523E-03
0.13391681E-03
0.79828220E-04
0.47729918E-04
0.28518396E-04
0.17041397E-04
0.10216000E-04
0.62091985E-05
0.37387015E-05
0.22400889E-05
0.13484380E-05
0.80733548E-06
0.48472879E-06
0.28945152E-06
0.17231154E-06
0.10322118E-06
0.61980096E-07
0.37082145E-07
0.21989441E-07
0.13109726E-07
0.78606854E-08
0.46703552E-08
0.27888241E-08
0.16725059E-08
0.99958763E-09
0.60067895E-09
0.36026068E-09
0.21647951E-09
0.13057229E-09
0.79727357E-10
