atomic number =   12
effective nuclear charge =   12
electron count =   10
net charge =    2
basis set = approximate basis set limit (UGBS)      
exchange correlation functional = PW91PW91            
cutoff radius (picometer) =  300
number of shells =   50
prepared by = Thomas A. Manz      
prepared date = May 2010            
net magnetization =    0
density in atomic units:
0.25447595E+03
0.21643892E+02
0.75394883E+01
0.50126753E+01
0.33513353E+01
0.20283031E+01
0.11904573E+01
0.70630425E+00
0.40914193E+00
0.23789534E+00
0.13600259E+00
0.77000625E-01
0.45417462E-01
0.26547080E-01
0.15658880E-01
0.92223017E-02
0.54075895E-02
0.32677818E-02
0.19601707E-02
0.11788995E-02
0.71321795E-03
0.43260920E-03
0.26460047E-03
0.16244914E-03
0.99792640E-04
0.61399573E-04
0.37958511E-04
0.23804010E-04
0.14820182E-04
0.91949951E-05
0.57358188E-05
0.35631838E-05
0.22210145E-05
0.13785951E-05
0.85427263E-06
0.53315608E-06
0.33406695E-06
0.20904490E-06
0.13009716E-06
0.81575095E-07
0.51535956E-07
0.32374217E-07
0.20465860E-07
0.12995641E-07
0.82231990E-08
0.52253188E-08
0.33085776E-08
0.20907529E-08
0.13176973E-08
0.83318852E-09
