atomic number =   66
effective nuclear charge =   66
electron count =   54
net charge =   12
basis set = approximate basis set limit (UGBS)      
exchange correlation functional = PW91PW91            
cutoff radius (picometer) =  500
number of shells =  100
prepared by = Thomas A. Manz      
prepared date = July 2010           
net magnetization =    0
density in atomic units:
0.29150719E+06
0.42905908E+03
0.11632051E+03
0.28531490E+02
0.17149162E+02
0.12332770E+02
0.74090090E+01
0.38935516E+01
0.20960639E+01
0.12330942E+01
0.82166296E+00
0.61816299E+00
0.48709667E+00
0.38880581E+00
0.31394762E+00
0.25145492E+00
0.19696878E+00
0.15337463E+00
0.11825078E+00
0.89703172E-01
0.67994207E-01
0.51591713E-01
0.38706917E-01
0.28910883E-01
0.21651536E-01
0.16154660E-01
0.12026795E-01
0.89954771E-02
0.66943611E-02
0.49917763E-02
0.37362636E-02
0.27836750E-02
0.20805544E-02
0.15581677E-02
0.11666531E-02
0.87108102E-03
0.64971572E-03
0.48513044E-03
0.36395300E-03
0.27260018E-03
0.20427105E-03
0.15327972E-03
0.11490253E-03
0.86793087E-04
0.65554028E-04
0.49190585E-04
0.37036039E-04
0.28063905E-04
0.21181055E-04
0.15983993E-04
0.12060360E-04
0.90780350E-05
0.68563522E-05
0.51880429E-05
0.39185365E-05
0.29539842E-05
0.22204915E-05
0.16686815E-05
0.12545181E-05
0.94393562E-06
0.70941735E-06
0.53277972E-06
0.40066078E-06
0.30103249E-06
0.22594109E-06
0.17040854E-06
0.12850236E-06
0.96604701E-07
0.72674439E-07
0.54632689E-07
0.41240458E-07
0.31157878E-07
0.23519224E-07
0.17794511E-07
0.13434099E-07
0.10140343E-07
0.76589366E-08
0.57781322E-08
0.43616168E-08
0.32988938E-08
0.24871780E-08
0.18711468E-08
0.14053261E-08
0.10543341E-08
0.79300166E-09
0.59672917E-09
0.44785822E-09
0.33627134E-09
0.25226998E-09
0.18877144E-09
0.14178399E-09
0.10649830E-09
0.80013968E-10
0.60475160E-10
0.45846053E-10
0.34937615E-10
0.26876458E-10
0.20847895E-10
0.16367472E-10
0.13107306E-10
