atomic number =   96
effective nuclear charge =   96
electron count =   18
net charge =   78
basis set = approximate basis set limit (UGBS)      
exchange correlation functional = PW91PW91            
cutoff radius (picometer) =  300
number of shells =   50
prepared by = Thomas A. Manz      
prepared date = July 2010           
net magnetization =    0
density in atomic units:
0.13366797E+06
0.10547597E+03
0.38765635E+01
0.65928258E-01
0.95328293E-03
0.16492000E-04
0.22072727E-05
0.11259862E-05
0.11099281E-06
0.36680348E-06
0.25705276E-06
0.39911065E-07
0.19386679E-07
0.58746490E-07
0.58649487E-07
0.29282351E-07
0.63870758E-08
0.13633608E-08
0.55570011E-08
0.97980015E-08
0.10147495E-07
0.74191600E-08
0.39575134E-08
0.14004998E-08
0.26241556E-09
0.26265604E-09
0.79627832E-09
0.13386936E-08
0.16362600E-08
0.16160789E-08
0.13546686E-08
0.97690644E-09
0.60385408E-09
0.30473035E-09
0.11406556E-09
0.29721177E-10
0.24371258E-10
0.67516617E-10
0.13105562E-09
0.19077957E-09
0.23327770E-09
0.25362185E-09
0.25121069E-09
0.23059614E-09
0.19746235E-09
0.15848989E-09
0.11854565E-09
0.82063856E-10
0.51652911E-10
0.28877851E-10
