atomic number =   88
effective nuclear charge =   88
electron count =   12
net charge =   76
basis set = approximate basis set limit (UGBS)      
exchange correlation functional = PW91PW91            
cutoff radius (picometer) =  300
number of shells =   50
prepared by = Thomas A. Manz      
prepared date = July 2010           
net magnetization =    0
density in atomic units:
0.10314812E+06
0.32155991E+02
0.17907062E+01
0.44921014E-01
0.90725679E-03
0.13159844E-04
0.16670076E-05
0.72113113E-06
0.56166282E-07
0.24648892E-06
0.16316007E-06
0.19772173E-07
0.12110310E-07
0.39847560E-07
0.38417028E-07
0.18010121E-07
0.31501608E-08
0.54930710E-09
0.37914387E-08
0.66522068E-08
0.67210117E-08
0.47537765E-08
0.24023852E-08
0.74417450E-09
0.69493543E-10
0.14510723E-09
0.54441734E-09
0.91699631E-09
0.11047340E-08
0.10722541E-08
0.88082613E-09
0.61861127E-09
0.36767989E-09
0.17248333E-09
0.53275665E-10
0.58101254E-11
0.99547297E-11
0.44400653E-10
0.90088520E-10
0.13101577E-09
0.15875730E-09
0.17073722E-09
0.16727371E-09
0.15165923E-09
0.12814340E-09
0.10120509E-09
0.74157791E-10
0.49903168E-10
0.30096772E-10
0.15598405E-10
