atomic number =    6
effective nuclear charge =    6
electron count =    4
net charge =    2
basis set = approximate basis set limit (UGBS)      
exchange correlation functional = PW91PW91            
cutoff radius (picometer) =  300
number of shells =   50
prepared by = Thomas A. Manz      
prepared date = May 2010            
net magnetization =    0
density in atomic units:
0.52160919E+02
0.14208308E+02
0.42309728E+01
0.12748809E+01
0.43577924E+00
0.19454786E+00
0.13520016E+00
0.11636407E+00
0.10274879E+00
0.89179538E-01
0.74869417E-01
0.61147194E-01
0.49694248E-01
0.39617304E-01
0.31342648E-01
0.24496486E-01
0.18960670E-01
0.14777151E-01
0.11408431E-01
0.87796925E-02
0.67509413E-02
0.51825298E-02
0.39857076E-02
0.30635302E-02
0.23505394E-02
0.18014099E-02
0.13825721E-02
0.10685835E-02
0.82220597E-03
0.63187629E-03
0.48739911E-03
0.37555298E-03
0.29028865E-03
0.22408120E-03
0.17300629E-03
0.13411949E-03
0.10420633E-03
0.80854254E-04
0.62499508E-04
0.48460643E-04
0.37678339E-04
0.29159772E-04
0.22624065E-04
0.17578022E-04
0.13630157E-04
0.10589196E-04
0.82102279E-05
0.63622019E-05
0.49267496E-05
0.38216795E-05
