atomic number =  100
effective nuclear charge =  100
electron count =   80
net charge =   20
basis set = approximate basis set limit (UGBS)      
exchange correlation functional = PW91PW91            
cutoff radius (picometer) =  500
number of shells =  100
prepared by = Thomas A. Manz      
prepared date = July 2010           
net magnetization =    0
density in atomic units:
0.10611142E+07
0.74633832E+03
0.19472784E+03
0.75578789E+02
0.24270973E+02
0.13360497E+02
0.88375778E+01
0.54535780E+01
0.31979694E+01
0.18023410E+01
0.10058383E+01
0.58771920E+00
0.34889704E+00
0.21222603E+00
0.13748205E+00
0.91670364E-01
0.60915399E-01
0.41198414E-01
0.28008889E-01
0.18856326E-01
0.12807821E-01
0.87753125E-02
0.59475061E-02
0.40181479E-02
0.27284434E-02
0.18444969E-02
0.12426805E-02
0.84193592E-03
0.56596362E-03
0.38095930E-03
0.25748627E-03
0.17273052E-03
0.11626743E-03
0.78419303E-04
0.52844716E-04
0.35479039E-04
0.23786128E-04
0.15986683E-04
0.10824378E-04
0.73296096E-05
0.49756040E-05
0.33955239E-05
0.23212574E-05
0.16092947E-05
0.11198815E-05
0.77630608E-06
0.54273767E-06
0.38373145E-06
0.27097292E-06
0.19188693E-06
0.13615372E-06
0.96354150E-07
0.68391728E-07
0.48487689E-07
0.34199918E-07
0.23847024E-07
0.16401598E-07
0.11114658E-07
0.73983859E-08
0.48100746E-08
0.30316749E-08
0.18394116E-08
0.10724526E-08
0.59881616E-09
0.33246073E-09
0.20741922E-09
0.17230120E-09
0.19246298E-09
0.24328067E-09
0.30687292E-09
0.37028591E-09
0.42577578E-09
0.46994325E-09
0.50026072E-09
0.51709592E-09
0.52070981E-09
0.51236554E-09
0.49246346E-09
0.46426155E-09
0.43194831E-09
0.39292680E-09
0.35286832E-09
0.31132696E-09
0.27077801E-09
0.23189178E-09
0.19624104E-09
0.16334784E-09
0.13385081E-09
0.10849199E-09
0.86420787E-10
0.68663943E-10
0.54134704E-10
0.43010477E-10
0.35213471E-10
0.30088067E-10
0.27278277E-10
0.26555504E-10
0.27574328E-10
0.29887048E-10
0.33123049E-10
