atomic number =   60
effective nuclear charge =   60
electron count =   48
net charge =   12
basis set = approximate basis set limit (UGBS)      
exchange correlation functional = PW91PW91            
cutoff radius (picometer) =  300
number of shells =   50
prepared by = Thomas A. Manz      
prepared date = July 2010           
net magnetization =    0
density in atomic units:
0.31066672E+05
0.19829047E+03
0.57574524E+02
0.16395622E+02
0.10619664E+02
0.70616436E+01
0.39546742E+01
0.20836127E+01
0.10546232E+01
0.55339843E+00
0.30366936E+00
0.17788337E+00
0.11480154E+00
0.76210521E-01
0.51814057E-01
0.35296280E-01
0.23912162E-01
0.16448660E-01
0.11168972E-01
0.75416169E-02
0.50779004E-02
0.34025332E-02
0.22801275E-02
0.15227043E-02
0.10109603E-02
0.66812895E-03
0.44112728E-03
0.29378943E-03
0.19389602E-03
0.12747478E-03
0.84231862E-04
0.55533517E-04
0.36802849E-04
0.24359821E-04
0.16145063E-04
0.10787515E-04
0.72438615E-05
0.48620077E-05
0.32473440E-05
0.21807609E-05
0.14710484E-05
0.98452745E-06
0.66034255E-06
0.44296695E-06
0.29519026E-06
0.19646716E-06
0.12968246E-06
0.84955666E-07
0.55173551E-07
0.35605318E-07
