atomic number =   99
effective nuclear charge =   99
electron count =   80
net charge =   19
basis set = approximate basis set limit (UGBS)      
exchange correlation functional = PW91PW91            
cutoff radius (picometer) =  400
number of shells =   75
prepared by = Thomas A. Manz      
prepared date = July 2010           
net magnetization =    0
density in atomic units:
0.14859752E+06
0.44856445E+03
0.16219281E+03
0.65606651E+02
0.22453756E+02
0.11570393E+02
0.74099603E+01
0.44093618E+01
0.24279714E+01
0.13133965E+01
0.72599024E+00
0.41511706E+00
0.24624202E+00
0.15328766E+00
0.98377556E-01
0.64171620E-01
0.42035900E-01
0.27672736E-01
0.18361466E-01
0.12237670E-01
0.81606507E-02
0.54286541E-02
0.35858504E-02
0.23714579E-02
0.15677449E-02
0.10344358E-02
0.68201934E-03
0.45059787E-03
0.29433897E-03
0.19198816E-03
0.12687535E-03
0.83678344E-04
0.54590724E-04
0.35505378E-04
0.23376362E-04
0.15424439E-04
0.10125291E-04
0.67029459E-05
0.44832327E-05
0.29952225E-05
0.20003847E-05
0.13536238E-05
0.92176418E-06
0.63001977E-06
0.43332523E-06
0.29900940E-06
0.20728255E-06
0.14384412E-06
0.99406101E-07
0.68603406E-07
0.47233357E-07
0.32367939E-07
0.21853245E-07
0.14572331E-07
0.95796127E-08
0.61310228E-08
0.37884504E-08
0.22601114E-08
0.12945660E-08
0.70708794E-09
0.37978218E-09
0.22665619E-09
0.18206138E-09
0.20177758E-09
0.25549549E-09
0.32132813E-09
0.38615972E-09
0.44091797E-09
0.48195847E-09
0.50737914E-09
0.51786680E-09
0.51368276E-09
0.49645388E-09
0.46981646E-09
0.43642714E-09
