atomic number =   92
effective nuclear charge =   92
electron count =   80
net charge =   12
basis set = approximate basis set limit (UGBS)      
exchange correlation functional = PW91PW91            
cutoff radius (picometer) =  300
number of shells =   50
prepared by = Thomas A. Manz      
prepared date = July 2010           
net magnetization =    0
density in atomic units:
0.11999573E+06
0.31016821E+03
0.11140456E+03
0.42562962E+02
0.14887733E+02
0.76641912E+01
0.48913031E+01
0.30494480E+01
0.17647185E+01
0.10009117E+01
0.56147897E+00
0.32046932E+00
0.19634712E+00
0.12239736E+00
0.78336559E-01
0.50619695E-01
0.32809068E-01
0.21827150E-01
0.14423165E-01
0.95271450E-02
0.62991926E-02
0.41554589E-02
0.27466449E-02
0.18115508E-02
0.11889279E-02
0.77722274E-03
0.50787372E-03
0.33492228E-03
0.21889521E-03
0.14250271E-03
0.93250223E-04
0.60878465E-04
0.39957682E-04
0.26197762E-04
0.17200317E-04
0.11390132E-04
0.75823341E-05
0.50472609E-05
0.33437416E-05
0.22282791E-05
0.14921931E-05
0.99151384E-06
0.66032601E-06
0.43981530E-06
0.29086408E-06
0.19203782E-06
0.12561600E-06
0.81478468E-07
0.52328122E-07
0.33336217E-07
