atomic number =   64
effective nuclear charge =   64
electron count =   48
net charge =   16
basis set = approximate basis set limit (UGBS)      
exchange correlation functional = PW91PW91            
cutoff radius (picometer) =  500
number of shells =  100
prepared by = Thomas A. Manz      
prepared date = July 2010           
net magnetization =    0
density in atomic units:
0.26356216E+06
0.41014191E+03
0.11799670E+03
0.28568722E+02
0.15408749E+02
0.11651852E+02
0.75416594E+01
0.41882977E+01
0.22439091E+01
0.11947857E+01
0.65388703E+00
0.38886076E+00
0.24197005E+00
0.15717712E+00
0.10882095E+00
0.77266574E-01
0.54534659E-01
0.38881559E-01
0.27690986E-01
0.19454729E-01
0.13719106E-01
0.97172568E-02
0.67979004E-02
0.47329459E-02
0.33064068E-02
0.22983828E-02
0.15917243E-02
0.11076173E-02
0.76491141E-03
0.52879832E-03
0.36686807E-03
0.25267759E-03
0.17454676E-03
0.12076421E-03
0.83451596E-04
0.57426827E-04
0.39436894E-04
0.27108870E-04
0.18741723E-04
0.12931532E-04
0.89264431E-05
0.61757869E-05
0.42683787E-05
0.29804426E-05
0.20824154E-05
0.14437851E-05
0.10057212E-05
0.70672337E-06
0.49435397E-06
0.34571903E-06
0.24174338E-06
0.16844248E-06
0.11774101E-06
0.82401222E-07
0.57425805E-07
0.39826524E-07
0.27433892E-07
0.18819206E-07
0.12855408E-07
0.87416021E-08
0.58964504E-08
0.39421426E-08
0.26172446E-08
0.17168883E-08
0.11114248E-08
0.71486783E-09
0.45376092E-09
0.28240418E-09
0.17331027E-09
0.10536641E-09
0.64607833E-10
0.40708274E-10
0.27209375E-10
0.20146931E-10
0.16680702E-10
0.15216162E-10
0.14661187E-10
0.14436019E-10
0.14207294E-10
0.13826940E-10
0.13223396E-10
0.12424545E-10
0.11460596E-10
0.10383499E-10
0.92680386E-11
0.81587558E-11
0.70837481E-11
0.60854100E-11
0.51754408E-11
0.43751660E-11
0.37001084E-11
0.31505122E-11
0.27166839E-11
0.23956499E-11
0.21855334E-11
0.20630813E-11
0.20272959E-11
0.20571023E-11
0.21413292E-11
0.22640932E-11
