atomic number =   74
effective nuclear charge =   74
electron count =   30
net charge =   44
basis set = approximate basis set limit (UGBS)      
exchange correlation functional = PW91PW91            
cutoff radius (picometer) =  500
number of shells =  100
prepared by = Thomas A. Manz      
prepared date = July 2010           
net magnetization =    0
density in atomic units:
0.42199450E+06
0.45476682E+03
0.98910385E+02
0.14384392E+02
0.35405304E+01
0.14764576E+01
0.56780076E+00
0.18499039E+00
0.58463924E-01
0.18000368E-01
0.52662371E-02
0.15889027E-02
0.45387202E-03
0.11922113E-03
0.32924891E-04
0.93032932E-05
0.24780768E-05
0.69801615E-06
0.21127852E-06
0.65618899E-07
0.23660442E-07
0.12283885E-07
0.96655279E-08
0.88220835E-08
0.74573654E-08
0.53977360E-08
0.32215108E-08
0.15175882E-08
0.48683552E-09
0.12775619E-09
0.22925052E-09
0.54726890E-09
0.87644653E-09
0.10962624E-08
0.11650170E-08
0.10908385E-08
0.91570163E-09
0.69295730E-09
0.47247678E-09
0.28218120E-09
0.14153206E-09
0.55364928E-10
0.17568207E-10
0.17391144E-10
0.41237357E-10
0.77943936E-10
0.11604911E-09
0.14798335E-09
0.17060342E-09
0.18176216E-09
0.18156460E-09
0.17149145E-09
0.15440924E-09
0.13292760E-09
0.10923801E-09
0.85488457E-10
0.63278785E-10
0.43998097E-10
0.28347958E-10
0.16542875E-10
0.83963930E-11
0.35889295E-11
0.16401635E-11
0.19401945E-11
0.38990079E-11
0.68896434E-11
0.10446722E-10
0.14192004E-10
0.17733858E-10
0.20829293E-10
0.23272481E-10
0.25033885E-10
0.26071584E-10
0.26412773E-10
0.26101074E-10
0.25187069E-10
0.23853926E-10
0.22148439E-10
0.20196728E-10
0.18097624E-10
0.15919505E-10
0.13732350E-10
0.11612014E-10
0.96175984E-11
0.78071560E-11
0.61923292E-11
0.47688572E-11
0.35539154E-11
0.25443916E-11
0.17259542E-11
0.11037774E-11
0.65009017E-12
0.34800534E-12
0.18304024E-12
0.13134758E-12
0.17439546E-12
0.29191092E-12
0.46799207E-12
0.68690713E-12
0.93241539E-12
