atomic number =   40
effective nuclear charge =   40
electron count =   10
net charge =   30
basis set = approximate basis set limit (UGBS)      
exchange correlation functional = PW91PW91            
cutoff radius (picometer) =  500
number of shells =  100
prepared by = Thomas A. Manz      
prepared date = July 2010           
net magnetization =    0
density in atomic units:
0.54674746E+05
0.21485188E+03
0.23214951E+02
0.18470988E+01
0.11991463E+00
0.11392701E-01
0.10127808E-02
0.69577989E-04
0.54678494E-05
0.56577818E-06
0.54518676E-07
0.10303925E-07
0.54276059E-08
0.16967304E-08
0.33934847E-09
0.74910750E-09
0.12763405E-08
0.11828978E-08
0.70602357E-09
0.25955751E-09
0.59731685E-10
0.59414917E-10
0.13852974E-09
0.20242838E-09
0.21220031E-09
0.17547550E-09
0.11757915E-09
0.63695653E-10
0.25878044E-10
0.81698962E-11
0.62697204E-11
0.13270236E-10
0.22745583E-10
0.30313908E-10
0.33945825E-10
0.33320340E-10
0.29293432E-10
0.23301821E-10
0.16860019E-10
0.10914237E-10
0.61974917E-11
0.29982113E-11
0.12519890E-11
0.73306221E-12
0.10608829E-11
0.19109154E-11
0.29401514E-11
0.38957301E-11
0.46513201E-11
0.51086631E-11
0.52463290E-11
0.50910027E-11
0.47037305E-11
0.41574292E-11
0.35165352E-11
0.28433972E-11
0.21887028E-11
0.15991614E-11
0.11012405E-11
0.70742782E-12
0.41697133E-12
0.22497867E-12
0.12085476E-12
0.88651952E-13
0.11241610E-12
0.17472197E-12
0.26124030E-12
0.36012970E-12
0.45936399E-12
0.55145287E-12
0.62812873E-12
0.68739545E-12
0.72734733E-12
0.74790212E-12
0.74917568E-12
0.73428964E-12
0.70435194E-12
0.66284798E-12
0.61238948E-12
0.55632983E-12
0.49628894E-12
0.43481988E-12
0.37395751E-12
0.31571314E-12
0.26165273E-12
0.21259319E-12
0.16862516E-12
0.13028240E-12
0.97637088E-13
0.70426778E-13
0.48955059E-13
0.32485228E-13
0.20563890E-13
0.12904210E-13
0.88005910E-14
0.77513823E-14
0.91936956E-14
0.12639766E-13
0.17642255E-13
0.23681161E-13
