atomic number =   55
effective nuclear charge =   55
electron count =   36
net charge =   19
basis set = approximate basis set limit (UGBS)      
exchange correlation functional = PW91PW91            
cutoff radius (picometer) =  300
number of shells =   50
prepared by = Thomas A. Manz      
prepared date = July 2010           
net magnetization =    0
density in atomic units:
0.23399393E+05
0.16302258E+03
0.60453861E+02
0.16026060E+02
0.57822609E+01
0.33830860E+01
0.20683665E+01
0.11627965E+01
0.58639157E+00
0.28039172E+00
0.12625514E+00
0.54452326E-01
0.24500851E-01
0.10694656E-01
0.46413871E-02
0.19846885E-02
0.82804583E-03
0.36079963E-03
0.15469908E-03
0.66421519E-04
0.28676377E-04
0.12328855E-04
0.53037820E-05
0.22618110E-05
0.94966657E-06
0.39573692E-06
0.16616164E-06
0.72991313E-07
0.32920234E-07
0.15639428E-07
0.80236813E-08
0.43573465E-08
0.24798541E-08
0.14258357E-08
0.80663876E-09
0.44163692E-09
0.22889289E-09
0.11229390E-09
0.57649219E-10
0.41661698E-10
0.45618731E-10
0.57502319E-10
0.69356527E-10
0.77159050E-10
0.79469452E-10
0.76378140E-10
0.68956056E-10
0.58776733E-10
0.47368606E-10
0.36196525E-10
