atomic number =   14
effective nuclear charge =   14
electron count =    4
net charge =   10
basis set = approximate basis set limit (UGBS)      
exchange correlation functional = PW91PW91            
cutoff radius (picometer) =  300
number of shells =   50
prepared by = Thomas A. Manz      
prepared date = May 2010            
net magnetization =    0
density in atomic units:
0.36054202E+03
0.13756330E+02
0.27390020E+01
0.18168230E+01
0.11226451E+01
0.58043027E+00
0.28094113E+00
0.13643211E+00
0.63381955E-01
0.29303491E-01
0.13144258E-01
0.57506934E-02
0.26518735E-02
0.11989611E-02
0.54466975E-03
0.24620394E-03
0.10960655E-03
0.50911229E-04
0.23260036E-04
0.10593598E-04
0.48250131E-05
0.21817129E-05
0.98635064E-06
0.44286338E-06
0.19632232E-06
0.86320277E-07
0.37921343E-07
0.17041241E-07
0.75949007E-08
0.33970291E-08
0.15643322E-08
0.73587109E-09
0.36282505E-09
0.18818595E-09
0.10448742E-09
0.63397398E-10
0.41965108E-10
0.29983814E-10
0.22737605E-10
0.18088560E-10
0.14752274E-10
0.12035408E-10
0.97191664E-11
0.76729231E-11
0.58469752E-11
0.42786009E-11
0.29663327E-11
0.19317176E-11
0.11769043E-11
0.68242319E-12
