atomic number =  100
effective nuclear charge =  100
electron count =   80
net charge =   20
basis set = approximate basis set limit (UGBS)      
exchange correlation functional = PW91PW91            
cutoff radius (picometer) =  300
number of shells =   50
prepared by = Thomas A. Manz      
prepared date = July 2010           
net magnetization =    0
density in atomic units:
0.15290128E+06
0.33715573E+03
0.12262170E+03
0.36155922E+02
0.14521297E+02
0.83318968E+01
0.46040902E+01
0.24172485E+01
0.12134534E+01
0.62541991E+00
0.33151525E+00
0.18375482E+00
0.11090809E+00
0.68090096E-01
0.42650312E-01
0.26734967E-01
0.16658327E-01
0.10606929E-01
0.66714445E-02
0.41819853E-02
0.26208174E-02
0.16376431E-02
0.10258458E-02
0.64143568E-03
0.39908473E-03
0.24735363E-03
0.15330859E-03
0.96049633E-04
0.59601512E-04
0.36834575E-04
0.22914479E-04
0.14236271E-04
0.89102778E-05
0.55846635E-05
0.35158569E-05
0.22430627E-05
0.14456817E-05
0.93605178E-06
0.60667981E-06
0.39748878E-06
0.26286247E-06
0.17329150E-06
0.11496349E-06
0.76329421E-07
0.50286101E-07
0.33036123E-07
0.21348445E-07
0.13549135E-07
0.83726039E-08
0.50280526E-08
