atomic number =   68
effective nuclear charge =   68
electron count =   54
net charge =   14
basis set = approximate basis set limit (UGBS)      
exchange correlation functional = PW91PW91            
cutoff radius (picometer) =  500
number of shells =  100
prepared by = Thomas A. Manz      
prepared date = July 2010           
net magnetization =    0
density in atomic units:
0.32133603E+06
0.44732156E+03
0.11340611E+03
0.28757345E+02
0.18339321E+02
0.12517531E+02
0.71079850E+01
0.35926452E+01
0.19213920E+01
0.11580843E+01
0.79835713E+00
0.61337411E+00
0.48581734E+00
0.38529953E+00
0.30748174E+00
0.24289210E+00
0.18742727E+00
0.14386255E+00
0.10941407E+00
0.81908956E-01
0.61333567E-01
0.46020433E-01
0.34154300E-01
0.25248000E-01
0.18726191E-01
0.13843253E-01
0.10214540E-01
0.75765592E-02
0.55927308E-02
0.41381819E-02
0.30747200E-02
0.22741954E-02
0.16880049E-02
0.12555990E-02
0.93377114E-03
0.69248438E-03
0.51296578E-03
0.38041145E-03
0.28342905E-03
0.21082036E-03
0.15686282E-03
0.11687964E-03
0.86990971E-04
0.65248023E-04
0.48935370E-04
0.36453835E-04
0.27249302E-04
0.20501275E-04
0.15362883E-04
0.11509404E-04
0.86211976E-05
0.64426008E-05
0.48295096E-05
0.36283016E-05
0.27194612E-05
0.20352807E-05
0.15180817E-05
0.11324260E-05
0.84472219E-06
0.63091926E-06
0.47047217E-06
0.35083249E-06
0.26181482E-06
0.19541477E-06
0.14569616E-06
0.10924047E-06
0.81916397E-07
0.61290301E-07
0.45901778E-07
0.34398127E-07
0.25893712E-07
0.19536182E-07
0.14738862E-07
0.11157869E-07
0.84406313E-08
0.63900907E-08
0.48478408E-08
0.36793950E-08
0.27977984E-08
0.21327273E-08
0.16237789E-08
0.12346573E-08
0.93896291E-09
0.71369965E-09
0.54345989E-09
0.41505496E-09
0.31590491E-09
0.24031904E-09
0.18279724E-09
0.13838773E-09
0.10501556E-09
0.79539091E-10
0.60046149E-10
0.45447025E-10
0.34337533E-10
0.25935589E-10
0.19665299E-10
0.14958604E-10
0.11465605E-10
0.89164631E-11
