atomic number =    8
effective nuclear charge =    8
electron count =    4
net charge =    4
basis set = approximate basis set limit (UGBS)      
exchange correlation functional = PW91PW91            
cutoff radius (picometer) =  400
number of shells =   75
prepared by = Thomas A. Manz      
prepared date = May 2010            
net magnetization =    0
density in atomic units:
0.10101239E+03
0.24604448E+02
0.57035413E+01
0.14916320E+01
0.55617452E+00
0.35408404E+00
0.29517823E+00
0.24779500E+00
0.19973461E+00
0.15552045E+00
0.11884160E+00
0.89234151E-01
0.66054992E-01
0.48714392E-01
0.35727572E-01
0.26040193E-01
0.18841468E-01
0.13606490E-01
0.98660607E-02
0.71732667E-02
0.52233166E-02
0.38003251E-02
0.27561919E-02
0.20048227E-02
0.14614145E-02
0.10661407E-02
0.77911938E-03
0.57153642E-03
0.41652273E-03
0.30398348E-03
0.22437914E-03
0.16564377E-03
0.12147897E-03
0.88993693E-04
0.65816021E-04
0.48728176E-04
0.35927122E-04
0.26608262E-04
0.19816749E-04
0.14702971E-04
0.10872832E-04
0.80896116E-05
0.60246243E-05
0.44805643E-05
0.33384072E-05
0.24868348E-05
0.18541593E-05
0.13812149E-05
0.10258251E-05
0.76256993E-06
0.56719813E-06
0.42247763E-06
0.31386153E-06
0.23315430E-06
0.17386944E-06
0.12924706E-06
0.95798327E-07
0.71104523E-07
0.52852215E-07
0.39223941E-07
0.29055787E-07
0.21565494E-07
0.15993042E-07
0.11830979E-07
0.87394030E-08
0.64497598E-08
0.47665552E-08
0.35122492E-08
0.25817717E-08
0.19019768E-08
0.14052256E-08
0.10333558E-08
0.75925277E-09
0.55981730E-09
0.41499568E-09
