atomic number =   78
effective nuclear charge =   78
electron count =    2
net charge =   76
basis set = approximate basis set limit (UGBS)      
exchange correlation functional = PW91PW91            
cutoff radius (picometer) =  300
number of shells =   50
prepared by = Thomas A. Manz      
prepared date = July 2010           
net magnetization =    0
density in atomic units:
0.60208000E+05
0.27529005E-03
0.34182875E-04
0.11066133E-04
0.24662872E-05
0.66965418E-06
0.47043335E-06
0.25042618E-06
0.18644986E-07
0.84342503E-07
0.56631865E-07
0.69323884E-08
0.39607775E-08
0.13498362E-07
0.13120937E-07
0.61784169E-08
0.10818577E-08
0.17093872E-09
0.12691791E-08
0.22487754E-08
0.22795696E-08
0.16149553E-08
0.81660362E-09
0.25238989E-09
0.22149293E-10
0.47150433E-10
0.18255963E-09
0.30921035E-09
0.37329220E-09
0.36258926E-09
0.29794109E-09
0.20922888E-09
0.12425500E-09
0.58146481E-10
0.17788276E-10
0.17261312E-11
0.31443823E-11
0.14825570E-10
0.30301345E-10
0.44169567E-10
0.53586087E-10
0.57653837E-10
0.56472414E-10
0.51203833E-10
0.43229982E-10
0.34133710E-10
0.24997641E-10
0.16802408E-10
0.10114554E-10
0.52210562E-11
