atomic number =   82
effective nuclear charge =   82
electron count =   48
net charge =   34
basis set = approximate basis set limit (UGBS)      
exchange correlation functional = PW91PW91            
cutoff radius (picometer) =  400
number of shells =   75
prepared by = Thomas A. Manz      
prepared date = July 2010           
net magnetization =    0
density in atomic units:
0.84416117E+05
0.38589359E+03
0.70480217E+02
0.37986458E+02
0.19611328E+02
0.74525456E+01
0.27910342E+01
0.11643519E+01
0.54989129E+00
0.28943163E+00
0.15914537E+00
0.87394901E-01
0.46942562E-01
0.25011458E-01
0.13127495E-01
0.67820302E-02
0.34382395E-02
0.17355962E-02
0.88148646E-03
0.45126627E-03
0.23076449E-03
0.11776266E-03
0.59197428E-04
0.29771838E-04
0.14902434E-04
0.74100249E-05
0.36676995E-05
0.18175616E-05
0.88473871E-06
0.42986983E-06
0.21511275E-06
0.10832927E-06
0.54399955E-07
0.27685454E-07
0.14663177E-07
0.79597173E-08
0.43620889E-08
0.24518534E-08
0.14201045E-08
0.84772378E-09
0.54421745E-09
0.40134476E-09
0.34342398E-09
0.32794908E-09
0.32883196E-09
0.33052056E-09
0.32490427E-09
0.30890673E-09
0.28287947E-09
0.24902713E-09
0.21078343E-09
0.17151104E-09
0.13364602E-09
0.99738086E-10
0.71474375E-10
0.48936803E-10
0.32361114E-10
0.21619763E-10
0.15863245E-10
0.14110368E-10
0.15384537E-10
0.18686157E-10
0.23143440E-10
0.28042168E-10
0.32760603E-10
0.36854061E-10
0.40011269E-10
0.42136926E-10
0.43152589E-10
0.43063855E-10
0.42031618E-10
0.40157731E-10
0.37592394E-10
0.34531399E-10
0.31194724E-10
