atomic number =   58
effective nuclear charge =   58
electron count =   48
net charge =   10
basis set = approximate basis set limit (UGBS)      
exchange correlation functional = PW91PW91            
cutoff radius (picometer) =  500
number of shells =  100
prepared by = Thomas A. Manz      
prepared date = July 2010           
net magnetization =    0
density in atomic units:
0.19058194E+06
0.36200635E+03
0.11594151E+03
0.32550167E+02
0.12455192E+02
0.93978157E+01
0.72020392E+01
0.48098946E+01
0.29845173E+01
0.17590983E+01
0.10175147E+01
0.61143816E+00
0.37335089E+00
0.23523119E+00
0.15906833E+00
0.11179668E+00
0.79247341E-01
0.57481464E-01
0.42059947E-01
0.30604878E-01
0.22440817E-01
0.16554797E-01
0.12090626E-01
0.87927291E-02
0.64088739E-02
0.46453699E-02
0.33517918E-02
0.24254306E-02
0.17409207E-02
0.12493723E-02
0.89858763E-03
0.64169680E-03
0.45921101E-03
0.32902887E-03
0.23546675E-03
0.16790610E-03
0.11954332E-03
0.85223794E-04
0.61095998E-04
0.43734715E-04
0.31330441E-04
0.22492095E-04
0.16132895E-04
0.11677600E-04
0.84541971E-05
0.60755365E-05
0.43825771E-05
0.31842187E-05
0.23023099E-05
0.16631075E-05
0.12002232E-05
0.86271643E-06
0.62145187E-06
0.44780302E-06
0.32119357E-06
0.22918837E-06
0.16238420E-06
0.11451732E-06
0.80378065E-07
0.56140703E-07
0.38874955E-07
0.26674373E-07
0.18151285E-07
0.12193938E-07
0.80682243E-08
0.52861298E-08
0.33962941E-08
0.21188176E-08
0.12845717E-08
0.74999895E-09
0.42131049E-09
0.22447601E-09
0.11164977E-09
0.53262915E-10
0.26849302E-10
0.18967779E-10
0.20624212E-10
0.26237269E-10
0.32517610E-10
0.37689123E-10
0.41195134E-10
0.42599414E-10
0.42360296E-10
0.40466880E-10
0.37699045E-10
0.34243990E-10
0.30518681E-10
0.26877887E-10
0.23445752E-10
0.20490143E-10
0.18052492E-10
0.16264616E-10
0.15129469E-10
0.14626328E-10
0.14684655E-10
0.15242831E-10
0.16219484E-10
0.17544157E-10
0.19151417E-10
0.20919717E-10
