atomic number =   95
effective nuclear charge =   95
electron count =    2
net charge =   93
basis set = approximate basis set limit (UGBS)      
exchange correlation functional = PW91PW91            
cutoff radius (picometer) =  300
number of shells =   50
prepared by = Thomas A. Manz      
prepared date = July 2010           
net magnetization =    0
density in atomic units:
0.10795257E+06
0.85772469E-03
0.70921094E-04
0.22805185E-04
0.49785299E-05
0.13816451E-05
0.94562284E-06
0.50993242E-06
0.37413674E-07
0.16953047E-06
0.11450143E-06
0.14134136E-07
0.78933047E-08
0.27107030E-07
0.26420295E-07
0.12468756E-07
0.21930928E-08
0.34043307E-09
0.25428781E-08
0.45160693E-08
0.45832391E-08
0.32496632E-08
0.16448156E-08
0.50926013E-09
0.44927485E-10
0.94200862E-10
0.36602960E-09
0.62068189E-09
0.74974460E-09
0.72856865E-09
0.59885930E-09
0.42068407E-09
0.24994007E-09
0.11703863E-09
0.35843863E-10
0.34926549E-11
0.62838341E-11
0.29719987E-10
0.60804174E-10
0.88664694E-10
0.10759657E-09
0.11578780E-09
0.11342623E-09
0.10286602E-09
0.86860623E-10
0.68586331E-10
0.50240319E-10
0.33772537E-10
0.20335778E-10
0.10498952E-10
