atomic number =   64
effective nuclear charge =   64
electron count =   54
net charge =   10
basis set = approximate basis set limit (UGBS)      
exchange correlation functional = PW91PW91            
cutoff radius (picometer) =  500
number of shells =  100
prepared by = Thomas A. Manz      
prepared date = July 2010           
net magnetization =    0
density in atomic units:
0.26356216E+06
0.41130270E+03
0.11831416E+03
0.28830317E+02
0.15910094E+02
0.11953730E+02
0.76176825E+01
0.41940455E+01
0.22991958E+01
0.13341045E+01
0.86095774E+00
0.63086593E+00
0.49120733E+00
0.39261690E+00
0.31984404E+00
0.25930282E+00
0.20595025E+00
0.16255528E+00
0.12695812E+00
0.97523227E-01
0.74769668E-01
0.57325829E-01
0.43439943E-01
0.32750458E-01
0.24738926E-01
0.18608801E-01
0.13959603E-01
0.10515149E-01
0.78778565E-02
0.59114541E-02
0.44505848E-02
0.33347751E-02
0.25060019E-02
0.18866417E-02
0.14198200E-02
0.10655436E-02
0.79881662E-03
0.59952686E-03
0.45205213E-03
0.34032247E-03
0.25634756E-03
0.19336326E-03
0.14571584E-03
0.11064513E-03
0.84008148E-04
0.63376814E-04
0.47973921E-04
0.36540612E-04
0.27727705E-04
0.21035505E-04
0.15957921E-04
0.12077827E-04
0.91704542E-05
0.69761572E-05
0.52971445E-05
0.40153132E-05
0.30344356E-05
0.22930255E-05
0.17325976E-05
0.13106194E-05
0.98999897E-06
0.74707259E-06
0.56453257E-06
0.42597483E-06
0.32117518E-06
0.24302855E-06
0.18389289E-06
0.13858461E-06
0.10447687E-06
0.78665011E-07
0.59423783E-07
0.44900510E-07
0.33867494E-07
0.25582921E-07
0.19265656E-07
0.14491883E-07
0.10896993E-07
0.81770581E-08
0.61342891E-08
0.46059516E-08
0.34437173E-08
0.25661564E-08
0.19071944E-08
0.14154253E-08
0.10520609E-08
0.78203954E-09
0.57987598E-09
0.43003406E-09
0.31884079E-09
0.23604846E-09
0.17576056E-09
0.13123123E-09
0.98402071E-10
0.74698338E-10
0.57280885E-10
0.44546242E-10
0.35338083E-10
0.28588331E-10
0.23676989E-10
0.20267983E-10
