atomic number =  106
effective nuclear charge =  106
electron count =   62
net charge =   44
basis set = approximate basis set limit (UGBS)      
exchange correlation functional = PW91PW91            
cutoff radius (picometer) =  400
number of shells =   75
prepared by = Thomas A. Manz      
prepared date = July 2010           
net magnetization =    0
density in atomic units:
0.17959014E+06
0.45343347E+03
0.16779179E+03
0.56198650E+02
0.13854210E+02
0.34128876E+01
0.99999142E+00
0.31108680E+00
0.92143662E-01
0.26902124E-01
0.76798084E-02
0.21646286E-02
0.59535808E-03
0.17126568E-03
0.51737694E-04
0.16404761E-04
0.52137343E-05
0.15844747E-05
0.40981848E-06
0.74123065E-07
0.10876558E-07
0.21297863E-07
0.34760127E-07
0.35151832E-07
0.26259881E-07
0.15127599E-07
0.66365731E-08
0.24028628E-08
0.17848332E-08
0.32710086E-08
0.52353424E-08
0.67137607E-08
0.72607906E-08
0.68374635E-08
0.57546354E-08
0.43528190E-08
0.29322003E-08
0.17531330E-08
0.92036506E-09
0.42611970E-09
0.23666069E-09
0.27412739E-09
0.44355350E-09
0.66514066E-09
0.87445640E-09
0.10329018E-08
0.11208260E-08
0.11343904E-08
0.10816199E-08
0.97759867E-09
0.84099355E-09
0.68980427E-09
0.53715793E-09
0.39672773E-09
0.27752217E-09
0.18091981E-09
0.10903341E-09
0.61888702E-10
0.36282585E-10
0.28177422E-10
0.33524981E-10
0.48047309E-10
0.67991696E-10
0.90196704E-10
0.11196217E-09
0.13127331E-09
0.14671718E-09
0.15780031E-09
0.16415383E-09
0.16568300E-09
0.16294392E-09
0.15656788E-09
0.14709292E-09
0.13556359E-09
0.12252886E-09
