atomic number =   74
effective nuclear charge =   74
electron count =   36
net charge =   38
basis set = approximate basis set limit (UGBS)      
exchange correlation functional = PW91PW91            
cutoff radius (picometer) =  400
number of shells =   75
prepared by = Thomas A. Manz      
prepared date = July 2010           
net magnetization =    0
density in atomic units:
0.60940137E+05
0.33970447E+03
0.70702515E+02
0.18493521E+02
0.97671452E+01
0.44212570E+01
0.16985631E+01
0.57677811E+00
0.17736566E+00
0.54236889E-01
0.16597765E-01
0.50464151E-02
0.14767401E-02
0.43558565E-03
0.12905228E-03
0.38778133E-04
0.11649799E-04
0.35586909E-05
0.10927022E-05
0.33819973E-06
0.10468872E-06
0.36020786E-07
0.15359143E-07
0.82166647E-08
0.45082826E-08
0.21132729E-08
0.71867406E-09
0.17295922E-09
0.21575880E-09
0.54246319E-09
0.88537072E-09
0.11084871E-08
0.11605030E-08
0.10531137E-08
0.85055951E-09
0.61118277E-09
0.38290349E-09
0.20439606E-09
0.87562319E-10
0.27311445E-10
0.14780316E-10
0.34763015E-10
0.71451449E-10
0.11213919E-09
0.14709069E-09
0.17111458E-09
0.18219920E-09
0.18056182E-09
0.16830126E-09
0.14839190E-09
0.12420856E-09
0.98664736E-10
0.73892434E-10
0.51838898E-10
0.33804095E-10
0.19815561E-10
0.10015708E-10
0.42103473E-11
0.17547347E-11
0.19199692E-11
0.39913003E-11
0.72459126E-11
0.11094862E-10
0.15053639E-10
0.18717116E-10
0.21795061E-10
0.24114643E-10
0.25634463E-10
0.26358299E-10
0.26295768E-10
0.25516471E-10
0.24212445E-10
0.22454831E-10
0.20393291E-10
0.18158310E-10
