atomic number =   65
effective nuclear charge =   65
electron count =    4
net charge =   61
basis set = approximate basis set limit (UGBS)      
exchange correlation functional = PW91PW91            
cutoff radius (picometer) =  300
number of shells =   50
prepared by = Thomas A. Manz      
prepared date = July 2010           
net magnetization =    0
density in atomic units:
0.38521492E+05
0.83861446E+01
0.51251650E-01
0.16083267E-03
0.31100433E-05
0.47481799E-06
0.34438480E-06
0.17603359E-06
0.14085068E-07
0.62797206E-07
0.41146308E-07
0.48524522E-08
0.30882354E-08
0.10147494E-07
0.97376898E-08
0.45365729E-08
0.77666168E-09
0.13480514E-09
0.96765662E-09
0.16938541E-08
0.17070123E-08
0.12038949E-08
0.60565170E-09
0.18545712E-09
0.15836322E-10
0.36584642E-10
0.13889609E-09
0.23371780E-09
0.28122021E-09
0.27253261E-09
0.22352763E-09
0.15668759E-09
0.92852205E-10
0.43306584E-10
0.13152204E-10
0.12468974E-11
0.24405371E-11
0.11301498E-10
0.22971161E-10
0.33390620E-10
0.40448381E-10
0.43466366E-10
0.42542095E-10
0.38546055E-10
0.32523845E-10
0.25661263E-10
0.18780401E-10
0.12612836E-10
0.75821233E-11
0.39068332E-11
