atomic number =   76
effective nuclear charge =   76
electron count =   48
net charge =   28
basis set = approximate basis set limit (UGBS)      
exchange correlation functional = PW91PW91            
cutoff radius (picometer) =  400
number of shells =   75
prepared by = Thomas A. Manz      
prepared date = July 2010           
net magnetization =    0
density in atomic units:
0.66468906E+05
0.36665335E+03
0.72627625E+02
0.31768406E+02
0.19820110E+02
0.92408056E+01
0.38905797E+01
0.16459166E+01
0.75498378E+00
0.39929482E+00
0.23287678E+00
0.14109699E+00
0.85715964E-01
0.52218266E-01
0.31541806E-01
0.18811166E-01
0.11031624E-01
0.64194025E-02
0.37385894E-02
0.21793910E-02
0.12659067E-02
0.73214725E-03
0.41884341E-03
0.24032206E-03
0.13809970E-03
0.79451915E-04
0.45879980E-04
0.26707698E-04
0.15417294E-04
0.89259593E-05
0.52791856E-05
0.31222760E-05
0.18220736E-05
0.10559842E-05
0.61775307E-06
0.35888164E-06
0.20422542E-06
0.11531001E-06
0.64570095E-07
0.35091002E-07
0.18401916E-07
0.94652384E-08
0.47156545E-08
0.22640403E-08
0.10736364E-08
0.52858490E-09
0.29836461E-09
0.20940844E-09
0.17430145E-09
0.15426120E-09
0.13398159E-09
0.11035687E-09
0.84702134E-10
0.60185308E-10
0.39564296E-10
0.23998570E-10
0.14288539E-10
0.10405187E-10
0.11472352E-10
0.16379901E-10
0.23905562E-10
0.32720406E-10
0.41842720E-10
0.50408313E-10
0.57745763E-10
0.63397211E-10
0.67089931E-10
0.68888228E-10
0.68750665E-10
0.66943798E-10
0.63786337E-10
0.59440675E-10
0.54252706E-10
0.48526294E-10
0.42646747E-10
