atomic number =   63
effective nuclear charge =   63
electron count =   54
net charge =    9
basis set = approximate basis set limit (UGBS)      
exchange correlation functional = PW91PW91            
cutoff radius (picometer) =  500
number of shells =  100
prepared by = Thomas A. Manz      
prepared date = July 2010           
net magnetization =    0
density in atomic units:
0.25027961E+06
0.40260333E+03
0.11886868E+03
0.29161207E+02
0.15268882E+02
0.11671755E+02
0.76708798E+01
0.43372340E+01
0.24089198E+01
0.13920207E+01
0.88318771E+00
0.63606203E+00
0.49026009E+00
0.39127398E+00
0.32014358E+00
0.26147145E+00
0.20960407E+00
0.16704038E+00
0.13173434E+00
0.10219556E+00
0.79097703E-01
0.61187938E-01
0.46782732E-01
0.35580207E-01
0.27100708E-01
0.20549120E-01
0.15536836E-01
0.11790285E-01
0.88983579E-02
0.67249043E-02
0.50976453E-02
0.38456779E-02
0.29092385E-02
0.22047020E-02
0.16700199E-02
0.12617547E-02
0.95231144E-03
0.71964494E-03
0.54632523E-03
0.41416491E-03
0.31415501E-03
0.23864371E-03
0.18114645E-03
0.13852036E-03
0.10591909E-03
0.80502650E-04
0.61376828E-04
0.47089576E-04
0.35992533E-04
0.27510110E-04
0.21022730E-04
0.16033660E-04
0.12265608E-04
0.94016514E-05
0.71932545E-05
0.54950133E-05
0.41858661E-05
0.31876555E-05
0.24286596E-05
0.18508917E-05
0.14095318E-05
0.10720005E-05
0.81614024E-06
0.62062213E-06
0.47126133E-06
0.35918953E-06
0.27351794E-06
0.20746634E-06
0.15726576E-06
0.11905085E-06
0.90363415E-07
0.68565818E-07
0.51902155E-07
0.39321087E-07
0.29678514E-07
0.22359780E-07
0.16828396E-07
0.12630294E-07
0.94699528E-08
0.71020416E-08
0.53006834E-08
0.39409889E-08
0.29207674E-08
0.21595576E-08
0.15990240E-08
0.11843190E-08
0.87449398E-09
0.64593730E-09
0.47732113E-09
0.35255129E-09
0.26222011E-09
0.19604823E-09
0.14757347E-09
0.11287084E-09
0.87572366E-10
0.69356375E-10
0.56252055E-10
0.46773137E-10
0.39990514E-10
0.35304700E-10
