atomic number =   79
effective nuclear charge =   79
electron count =   78
net charge =    1
basis set = approximate basis set limit (UGBS)      
exchange correlation functional = PW91PW91            
cutoff radius (picometer) =  500
number of shells =  100
prepared by = Thomas A. Manz      
prepared date = July 2010           
net magnetization =    0
density in atomic units:
0.52039103E+06
0.56706897E+03
0.11971229E+03
0.59171028E+02
0.34347771E+02
0.17515303E+02
0.85175924E+01
0.45542526E+01
0.29757578E+01
0.21565411E+01
0.16157347E+01
0.12307740E+01
0.92176878E+00
0.68061244E+00
0.50995976E+00
0.38309526E+00
0.28488606E+00
0.21441969E+00
0.16256188E+00
0.12321675E+00
0.94694704E-01
0.73720559E-01
0.57375379E-01
0.44854209E-01
0.35379805E-01
0.27977185E-01
0.22190433E-01
0.17737845E-01
0.14175925E-01
0.11384669E-01
0.91949170E-02
0.74212779E-02
0.60176528E-02
0.48965155E-02
0.39906316E-02
0.32513053E-02
0.26509573E-02
0.21660093E-02
0.17776496E-02
0.14586661E-02
0.11989450E-02
0.98726910E-03
0.81340084E-03
0.67420566E-03
0.55932422E-03
0.46242715E-03
0.38358194E-03
0.31978870E-03
0.26616969E-03
0.22174105E-03
0.18487884E-03
0.15406880E-03
0.12879944E-03
0.10790319E-03
0.90389920E-04
0.75703516E-04
0.63353953E-04
0.53065844E-04
0.44500033E-04
0.37370010E-04
0.31385309E-04
0.26369311E-04
0.22188569E-04
0.18670049E-04
0.15711938E-04
0.13263253E-04
0.11200372E-04
0.94417210E-05
0.79636111E-05
0.67145656E-05
0.56749759E-05
0.47988897E-05
0.40562522E-05
0.34326786E-05
0.29014157E-05
0.24521389E-05
0.20734446E-05
0.17525000E-05
0.14821068E-05
0.12551926E-05
0.10613581E-05
0.89663166E-06
0.75713740E-06
0.63938921E-06
0.54085768E-06
0.45793419E-06
0.38746342E-06
0.32789956E-06
0.27750568E-06
0.23446999E-06
0.19855194E-06
0.16803065E-06
0.14206982E-06
0.12037215E-06
0.10194692E-06
0.86359812E-07
0.73290749E-07
0.62145801E-07
0.52677869E-07
0.44716344E-07
