atomic number =   86
effective nuclear charge =   86
electron count =   62
net charge =   24
basis set = approximate basis set limit (UGBS)      
exchange correlation functional = PW91PW91            
cutoff radius (picometer) =  300
number of shells =   50
prepared by = Thomas A. Manz      
prepared date = July 2010           
net magnetization =    0
density in atomic units:
0.97812211E+05
0.28975119E+03
0.89918488E+02
0.44355522E+02
0.16276213E+02
0.50717349E+01
0.17559402E+01
0.71688986E+00
0.29998368E+00
0.12927726E+00
0.54285880E-01
0.21947697E-01
0.92849797E-02
0.38055405E-02
0.15563930E-02
0.63151302E-03
0.25126379E-03
0.10523063E-03
0.43441727E-04
0.17951659E-04
0.74337077E-05
0.30400768E-05
0.12242463E-05
0.47532657E-06
0.17349811E-06
0.58735768E-07
0.18585579E-07
0.62826184E-08
0.29310741E-08
0.21392761E-08
0.17727794E-08
0.13445173E-08
0.89279217E-09
0.51861637E-09
0.28779826E-09
0.20473408E-09
0.23024159E-09
0.31755037E-09
0.42302184E-09
0.51007504E-09
0.56056576E-09
0.56945793E-09
0.53932581E-09
0.48001964E-09
0.40268239E-09
0.31928624E-09
0.23838881E-09
0.16692316E-09
0.10912430E-09
0.66938698E-10
