atomic number =  104
effective nuclear charge =  104
electron count =   36
net charge =   68
basis set = approximate basis set limit (UGBS)      
exchange correlation functional = PW91PW91            
cutoff radius (picometer) =  300
number of shells =   50
prepared by = Thomas A. Manz      
prepared date = July 2010           
net magnetization =    0
density in atomic units:
0.16988512E+06
0.20393661E+03
0.36553074E+02
0.74317627E+01
0.95086330E+00
0.77925272E-01
0.58194515E-02
0.54879312E-03
0.40887640E-04
0.23105958E-05
0.38193542E-06
0.63178341E-07
0.28788770E-07
0.99865119E-07
0.10933991E-06
0.61832772E-07
0.18042000E-07
0.39178492E-08
0.83152090E-08
0.15786883E-07
0.17842787E-07
0.14333263E-07
0.86873815E-08
0.38827976E-08
0.12288535E-08
0.61523431E-09
0.11873172E-08
0.20457795E-08
0.26604292E-08
0.27995766E-08
0.25067421E-08
0.19519670E-08
0.13339677E-08
0.78534873E-09
0.38975501E-09
0.16821659E-09
0.90970100E-10
0.11461649E-09
0.19409220E-09
0.28718655E-09
0.36508946E-09
0.41421133E-09
0.42818377E-09
0.41000339E-09
0.36727732E-09
0.30975905E-09
0.24568900E-09
0.18301786E-09
0.12725410E-09
0.82243407E-10
