atomic number =   14
effective nuclear charge =   14
electron count =    2
net charge =   12
basis set = approximate basis set limit (UGBS)      
exchange correlation functional = PW91PW91            
cutoff radius (picometer) =  300
number of shells =   50
prepared by = Thomas A. Manz      
prepared date = May 2010            
net magnetization =    0
density in atomic units:
0.33992575E+03
0.13035794E+02
0.78653014E+00
0.47386553E-01
0.30868228E-02
0.16239690E-03
0.89686027E-05
0.67507227E-06
0.35916845E-07
0.59870114E-09
0.62579428E-10
0.89848831E-11
0.71981032E-10
0.13702718E-09
0.10845280E-09
0.43335550E-10
0.53265955E-11
0.29624122E-11
0.14232021E-10
0.21792831E-10
0.20502527E-10
0.13698910E-10
0.64697479E-11
0.17554802E-11
0.11126861E-12
0.63732098E-12
0.19826400E-11
0.31137890E-11
0.36077048E-11
0.34070303E-11
0.27361206E-11
0.18777235E-11
0.10843943E-11
0.48574458E-12
0.13478449E-12
0.97283640E-14
0.42596636E-13
0.16453629E-12
0.31524319E-12
0.44531590E-12
0.53002790E-12
0.56255662E-12
0.54528853E-12
0.49005136E-12
0.41043121E-12
0.32140978E-12
0.23327778E-12
0.15507562E-12
0.91947818E-13
0.46346814E-13
