atomic number =   68
effective nuclear charge =   68
electron count =   10
net charge =   58
basis set = approximate basis set limit (UGBS)      
exchange correlation functional = PW91PW91            
cutoff radius (picometer) =  300
number of shells =   50
prepared by = Thomas A. Manz      
prepared date = July 2010           
net magnetization =    0
density in atomic units:
0.44844086E+05
0.20648806E+02
0.97813495E-01
0.29449147E-03
0.38974340E-05
0.57564631E-06
0.41171293E-06
0.22002172E-06
0.19154944E-07
0.74431540E-07
0.50519432E-07
0.69068569E-08
0.37687542E-08
0.11960725E-07
0.11719506E-07
0.56614144E-08
0.11090242E-08
0.21671889E-09
0.11342547E-08
0.19948818E-08
0.20390234E-08
0.14651673E-08
0.76025669E-09
0.25214572E-09
0.36103103E-10
0.48179582E-10
0.16272450E-09
0.27377872E-09
0.33209374E-09
0.32497607E-09
0.26956939E-09
0.19177743E-09
0.11619410E-09
0.56565044E-10
0.19382962E-10
0.37696326E-11
0.39146793E-11
0.13516453E-10
0.26844712E-10
0.39057639E-10
0.47546078E-10
0.51415490E-10
0.50608830E-10
0.46159757E-10
0.39247518E-10
0.31238508E-10
0.23127247E-10
0.15778800E-10
0.97253238E-11
0.52417341E-11
