atomic number =   93
effective nuclear charge =   93
electron count =   60
net charge =   33
basis set = approximate basis set limit (UGBS)      
exchange correlation functional = PW91PW91            
cutoff radius (picometer) =  300
number of shells =   50
prepared by = Thomas A. Manz      
prepared date = July 2010           
net magnetization =    0
density in atomic units:
0.12355664E+06
0.30541223E+03
0.10555286E+03
0.41087421E+02
0.11246586E+02
0.23663511E+01
0.48678893E+00
0.11274546E+00
0.25021866E-01
0.58226357E-02
0.13962729E-02
0.32707301E-03
0.82838676E-04
0.19828572E-04
0.47970170E-05
0.12266173E-05
0.31761377E-06
0.92543409E-07
0.32857400E-07
0.19752049E-07
0.15661916E-07
0.11411716E-07
0.68599602E-08
0.33145053E-08
0.14182391E-08
0.97242758E-09
0.13297671E-08
0.18556988E-08
0.21908393E-08
0.21941231E-08
0.19120256E-08
0.14698156E-08
0.10065841E-08
0.61060895E-09
0.33354317E-09
0.18352007E-09
0.13492281E-09
0.15444282E-09
0.20929236E-09
0.26984345E-09
0.31711075E-09
0.34235567E-09
0.34239644E-09
0.32065775E-09
0.28273189E-09
0.23604765E-09
0.18632246E-09
0.13909028E-09
0.98034705E-10
0.65524579E-10
