atomic number =   85
effective nuclear charge =   85
electron count =   28
net charge =   57
basis set = approximate basis set limit (UGBS)      
exchange correlation functional = PW91PW91            
cutoff radius (picometer) =  300
number of shells =   50
prepared by = Thomas A. Manz      
prepared date = July 2010           
net magnetization =    0
density in atomic units:
0.93353125E+05
0.22911172E+03
0.17421225E+02
0.70445371E+00
0.25387222E-01
0.73472661E-03
0.17720242E-04
0.94974661E-06
0.58043376E-07
0.23152725E-06
0.17344654E-06
0.32625650E-07
0.13243610E-07
0.36526952E-07
0.37821732E-07
0.20188340E-07
0.53747078E-08
0.14046549E-08
0.35090895E-08
0.60805858E-08
0.64440631E-08
0.48850457E-08
0.27668705E-08
0.11197031E-08
0.31572170E-09
0.22854808E-09
0.50716159E-09
0.82685431E-09
0.10180220E-08
0.10226691E-08
0.87659080E-09
0.65159822E-09
0.42121570E-09
0.23004040E-09
0.10232486E-09
0.39723037E-10
0.27302660E-10
0.47215131E-10
0.82387645E-10
0.11771181E-09
0.14416629E-09
0.15804535E-09
0.15832378E-09
0.14720425E-09
0.12805135E-09
0.10476844E-09
0.80279734E-10
0.57416866E-10
0.37949720E-10
0.22951901E-10
