atomic number =   68
effective nuclear charge =   68
electron count =    2
net charge =   66
basis set = approximate basis set limit (UGBS)      
exchange correlation functional = PW91PW91            
cutoff radius (picometer) =  300
number of shells =   50
prepared by = Thomas A. Manz      
prepared date = July 2010           
net magnetization =    0
density in atomic units:
0.39186195E+05
0.11715915E-03
0.20173349E-04
0.66103867E-05
0.15001884E-05
0.39987083E-06
0.28719165E-06
0.15120968E-06
0.11406091E-07
0.51504585E-07
0.34407698E-07
0.41810093E-08
0.24372140E-08
0.82510034E-08
0.80012281E-08
0.37604577E-08
0.65587480E-09
0.10524658E-09
0.77731926E-09
0.13744881E-08
0.13919272E-08
0.98532704E-09
0.49785032E-09
0.15364365E-09
0.13421902E-10
0.28947410E-10
0.11174629E-09
0.18906032E-09
0.22812387E-09
0.22150207E-09
0.18194796E-09
0.12773932E-09
0.75835380E-10
0.35472066E-10
0.10840000E-10
0.10480388E-11
0.19299655E-11
0.90760021E-11
0.18534346E-10
0.27005665E-10
0.32755416E-10
0.35240342E-10
0.34509753E-10
0.31285835E-10
0.26415276E-10
0.20852221E-10
0.15270517E-10
0.10264025E-10
0.61757448E-11
0.31871480E-11
