atomic number =   72
effective nuclear charge =   72
electron count =   10
net charge =   62
basis set = approximate basis set limit (UGBS)      
exchange correlation functional = PW91PW91            
cutoff radius (picometer) =  300
number of shells =   50
prepared by = Thomas A. Manz      
prepared date = July 2010           
net magnetization =    0
density in atomic units:
0.53773625E+05
0.15239425E+02
0.48136380E-01
0.93959890E-04
0.32971652E-05
0.71728721E-06
0.52302823E-06
0.27460234E-06
0.23569973E-07
0.94146316E-07
0.63260835E-07
0.83452401E-08
0.47243462E-08
0.15124373E-07
0.14736750E-07
0.70513617E-08
0.13358835E-08
0.25333097E-09
0.14348996E-08
0.25212930E-08
0.25674640E-08
0.18357070E-08
0.94468644E-09
0.30692382E-09
0.39419280E-10
0.58953842E-10
0.20577744E-09
0.34637496E-09
0.41932718E-09
0.40921685E-09
0.33839653E-09
0.23977434E-09
0.14441863E-09
0.69507178E-10
0.23100979E-10
0.39299944E-11
0.45589873E-11
0.16989188E-10
0.33971409E-10
0.49421363E-10
0.60095241E-10
0.64848522E-10
0.63755619E-10
0.58038015E-10
0.49246995E-10
0.39104563E-10
0.28857867E-10
0.19601560E-10
0.11999468E-10
0.63896982E-11
