atomic number =  102
effective nuclear charge =  102
electron count =   86
net charge =   16
basis set = approximate basis set limit (UGBS)      
exchange correlation functional = PW91PW91            
cutoff radius (picometer) =  400
number of shells =   75
prepared by = Thomas A. Manz      
prepared date = July 2010           
net magnetization =    0
density in atomic units:
0.16165933E+06
0.45402557E+03
0.17106699E+03
0.62354652E+02
0.22169767E+02
0.12257745E+02
0.74540510E+01
0.41336451E+01
0.22350085E+01
0.13101943E+01
0.86171526E+00
0.61847323E+00
0.46436000E+00
0.35598725E+00
0.27279907E+00
0.20708689E+00
0.15513831E+00
0.11515244E+00
0.85217074E-01
0.62842645E-01
0.46173949E-01
0.33750698E-01
0.24504080E-01
0.17791651E-01
0.12915706E-01
0.93673170E-02
0.67956815E-02
0.49431263E-02
0.35673517E-02
0.25751898E-02
0.18788468E-02
0.13696845E-02
0.99066889E-03
0.71510422E-03
0.52100298E-03
0.37985342E-03
0.27569983E-03
0.20107579E-03
0.14756234E-03
0.10794155E-03
0.78747376E-04
0.57863122E-04
0.42605770E-04
0.31351563E-04
0.23134451E-04
0.17077358E-04
0.12622526E-04
0.93209310E-05
0.68629556E-05
0.50539375E-05
0.37223570E-05
0.27427652E-05
0.20132557E-05
0.14757975E-05
0.10844178E-05
0.79311394E-06
0.57685151E-06
0.41962667E-06
0.30520562E-06
0.22125066E-06
0.15981172E-06
0.11548545E-06
0.83241993E-07
0.59762407E-07
0.42812918E-07
0.30620448E-07
0.21904292E-07
0.15618658E-07
0.11099953E-07
0.79152258E-08
0.56733875E-08
0.40543111E-08
0.28879499E-08
0.20725572E-08
0.14968952E-08
