atomic number =   78
effective nuclear charge =   78
electron count =   12
net charge =   66
basis set = approximate basis set limit (UGBS)      
exchange correlation functional = PW91PW91            
cutoff radius (picometer) =  300
number of shells =   50
prepared by = Thomas A. Manz      
prepared date = July 2010           
net magnetization =    0
density in atomic units:
0.71117992E+05
0.35379311E+02
0.36917326E+01
0.19063082E+00
0.77048535E-02
0.19741550E-03
0.71183267E-05
0.95448729E-06
0.49090026E-07
0.17181245E-06
0.11781759E-06
0.14647598E-07
0.88387715E-08
0.28992126E-07
0.28001159E-07
0.13150125E-07
0.23174198E-08
0.42537820E-09
0.27987517E-08
0.48893227E-08
0.49346984E-08
0.34897158E-08
0.17642124E-08
0.54809413E-09
0.54006521E-10
0.11051768E-09
0.40428405E-09
0.67798367E-09
0.81561041E-09
0.79108842E-09
0.64976086E-09
0.45642540E-09
0.27141608E-09
0.12757451E-09
0.39712119E-10
0.47352153E-11
0.78038062E-11
0.33210573E-10
0.66885254E-10
0.97051596E-10
0.11751305E-09
0.12636442E-09
0.12376999E-09
0.11222390E-09
0.94801215E-10
0.74907483E-10
0.54924933E-10
0.36986178E-10
0.22340725E-10
0.11612882E-10
