atomic number =   74
effective nuclear charge =   74
electron count =   30
net charge =   44
basis set = approximate basis set limit (UGBS)      
exchange correlation functional = PW91PW91            
cutoff radius (picometer) =  400
number of shells =   75
prepared by = Thomas A. Manz      
prepared date = July 2010           
net magnetization =    0
density in atomic units:
0.60931352E+05
0.32447931E+03
0.68767471E+02
0.11237952E+02
0.31630828E+01
0.11133164E+01
0.37257868E+00
0.11251023E+00
0.30716456E-01
0.83572604E-02
0.22579101E-02
0.60184958E-03
0.15214618E-03
0.38321356E-04
0.95463329E-05
0.23964435E-05
0.61071040E-06
0.16720078E-06
0.50072536E-07
0.18532811E-07
0.10777472E-07
0.92903054E-08
0.82311020E-08
0.63233503E-08
0.39980699E-08
0.19667625E-08
0.67146777E-09
0.15544296E-09
0.20867069E-09
0.53946975E-09
0.88408975E-09
0.11078981E-08
0.11601287E-08
0.10527894E-08
0.85021445E-09
0.61082744E-09
0.38256748E-09
0.20409945E-09
0.87332357E-10
0.27154799E-10
0.14687409E-10
0.34717958E-10
0.71432131E-10
0.11212959E-09
0.14707774E-09
0.17108916E-09
0.18216015E-09
0.18050572E-09
0.16823060E-09
0.14832044E-09
0.12413327E-09
0.98587097E-10
0.73821248E-10
0.51775743E-10
0.33748882E-10
0.19770859E-10
0.99803811E-11
0.41843347E-11
0.17367268E-11
0.19085497E-11
0.39848996E-11
0.72425911E-11
0.11093322E-10
0.15052647E-10
0.18715945E-10
0.21793095E-10
0.24111806E-10
0.25630638E-10
0.26351841E-10
0.26288607E-10
0.25508056E-10
0.24202603E-10
0.22444132E-10
0.20382605E-10
0.18147310E-10
