atomic number =   98
effective nuclear charge =   98
electron count =   46
net charge =   52
basis set = approximate basis set limit (UGBS)      
exchange correlation functional = PW91PW91            
cutoff radius (picometer) =  300
number of shells =   50
prepared by = Thomas A. Manz      
prepared date = July 2010           
net magnetization =    0
density in atomic units:
0.14385511E+06
0.23986949E+03
0.70815941E+02
0.22471025E+02
0.45288467E+01
0.63638777E+00
0.82497090E-01
0.12087736E-01
0.15506063E-02
0.19609946E-03
0.27212649E-04
0.41801777E-05
0.79162908E-06
0.18778658E-06
0.81815472E-07
0.37694200E-07
0.11116579E-07
0.44462096E-08
0.82198985E-08
0.12531727E-07
0.12760753E-07
0.95657589E-08
0.54806453E-08
0.23670621E-08
0.86056595E-09
0.69006278E-09
0.11873635E-08
0.17485488E-08
0.20637683E-08
0.20316959E-08
0.17261991E-08
0.12821222E-08
0.83691337E-09
0.47147553E-09
0.22898734E-09
0.11046812E-09
0.86449313E-10
0.12259747E-09
0.18655893E-09
0.25006980E-09
0.29647126E-09
0.31892297E-09
0.31600686E-09
0.29206360E-09
0.25328400E-09
0.20720728E-09
0.15938853E-09
0.11506467E-09
0.77496620E-10
0.48607215E-10
