atomic number =   72
effective nuclear charge =   72
electron count =   48
net charge =   24
basis set = approximate basis set limit (UGBS)      
exchange correlation functional = PW91PW91            
cutoff radius (picometer) =  400
number of shells =   75
prepared by = Thomas A. Manz      
prepared date = July 2010           
net magnetization =    0
density in atomic units:
0.55942387E+05
0.34401401E+03
0.77170586E+02
0.27853617E+02
0.18724800E+02
0.10072639E+02
0.47121339E+01
0.20920546E+01
0.95616245E+00
0.49306795E+00
0.28552642E+00
0.17739993E+00
0.11360636E+00
0.74190609E-01
0.48496388E-01
0.31445909E-01
0.20104574E-01
0.12749312E-01
0.80788266E-02
0.51136818E-02
0.32254746E-02
0.20251728E-02
0.12602361E-02
0.78596792E-03
0.49076026E-03
0.30648394E-03
0.19175820E-03
0.12058128E-03
0.75062795E-04
0.46728848E-04
0.29548271E-04
0.18639956E-04
0.11603238E-04
0.71776440E-05
0.44821686E-05
0.27904148E-05
0.17150401E-05
0.10552527E-05
0.65123567E-06
0.39712100E-06
0.23928763E-06
0.14479554E-06
0.87327017E-07
0.52279699E-07
0.31296111E-07
0.18719099E-07
0.11182916E-07
0.66944041E-08
0.40112615E-08
0.24354188E-08
0.15062936E-08
0.95558994E-09
0.62156419E-09
0.41836262E-09
0.29358302E-09
0.21388682E-09
0.16271570E-09
0.13047231E-09
0.11064990E-09
0.99051427E-10
0.93110124E-10
0.90774575E-10
0.90548423E-10
0.91439925E-10
0.92376017E-10
0.92988277E-10
0.92532731E-10
0.91060742E-10
0.88408648E-10
0.84539965E-10
0.79588024E-10
0.73711794E-10
0.67358168E-10
0.60361854E-10
0.53404788E-10
