atomic number =   99
effective nuclear charge =   99
electron count =   36
net charge =   63
basis set = approximate basis set limit (UGBS)      
exchange correlation functional = PW91PW91            
cutoff radius (picometer) =  300
number of shells =   50
prepared by = Thomas A. Manz      
prepared date = July 2010           
net magnetization =    0
density in atomic units:
0.14800352E+06
0.21546040E+03
0.36925793E+02
0.94624424E+01
0.15356723E+01
0.16331354E+00
0.15547686E-01
0.16857922E-02
0.14988730E-03
0.12314391E-04
0.12779560E-05
0.14850218E-06
0.45420457E-07
0.81878227E-07
0.77564550E-07
0.38167034E-07
0.81425178E-08
0.15838795E-08
0.70372987E-08
0.12577878E-07
0.13088496E-07
0.96056416E-08
0.51501834E-08
0.18418711E-08
0.35340056E-09
0.33382358E-09
0.10098649E-08
0.17064617E-08
0.20944908E-08
0.20768225E-08
0.17484061E-08
0.12677353E-08
0.78977447E-09
0.40421907E-09
0.15627141E-09
0.44345683E-10
0.34136159E-10
0.86954569E-10
0.16687993E-09
0.24293725E-09
0.29765440E-09
0.32440164E-09
0.32226052E-09
0.29672906E-09
0.25494154E-09
0.20551756E-09
0.15455706E-09
0.10777418E-09
0.68619763E-10
0.39085006E-10
