atomic number =   85
effective nuclear charge =   85
electron count =   36
net charge =   49
basis set = approximate basis set limit (UGBS)      
exchange correlation functional = PW91PW91            
cutoff radius (picometer) =  300
number of shells =   50
prepared by = Thomas A. Manz      
prepared date = July 2010           
net magnetization =    0
density in atomic units:
0.94110023E+05
0.24051776E+03
0.34968670E+02
0.13655542E+02
0.42568631E+01
0.90618294E+00
0.16614041E+00
0.31546008E-01
0.54892744E-02
0.97566331E-03
0.16911936E-03
0.25828120E-04
0.40139789E-05
0.56133183E-06
0.10751260E-06
0.31982374E-07
0.66886554E-08
0.31346279E-08
0.83256371E-08
0.12589635E-07
0.12297562E-07
0.87410781E-08
0.46115858E-08
0.16700891E-08
0.40463877E-09
0.44021017E-09
0.10662179E-08
0.16832965E-08
0.20075570E-08
0.19622564E-08
0.16401515E-08
0.11861135E-08
0.74095857E-09
0.38454678E-09
0.15665384E-09
0.54548647E-10
0.46028632E-10
0.95242501E-10
0.16906423E-09
0.23893240E-09
0.28871083E-09
0.31239944E-09
0.30932501E-09
0.28439767E-09
0.24446217E-09
0.19743766E-09
0.14906335E-09
0.10463377E-09
0.67428930E-10
0.39281939E-10
