atomic number =   40
effective nuclear charge =   40
electron count =   30
net charge =   10
basis set = approximate basis set limit (UGBS)      
exchange correlation functional = PW91PW91            
cutoff radius (picometer) =  400
number of shells =   75
prepared by = Thomas A. Manz      
prepared date = July 2010           
net magnetization =    0
density in atomic units:
0.83676279E+04
0.16093854E+03
0.45481647E+02
0.28054188E+02
0.15762918E+02
0.72739067E+01
0.32164483E+01
0.14361569E+01
0.68834752E+00
0.38184348E+00
0.23994234E+00
0.16138837E+00
0.11125243E+00
0.77564068E-01
0.53818621E-01
0.36898464E-01
0.24891483E-01
0.16618706E-01
0.11065206E-01
0.73468862E-02
0.48585255E-02
0.31963463E-02
0.20850943E-02
0.13618239E-02
0.88973768E-03
0.58090425E-03
0.37949256E-03
0.24876517E-03
0.16139429E-03
0.10463477E-03
0.68759749E-04
0.45076911E-04
0.29196492E-04
0.18816090E-04
0.12247418E-04
0.79619895E-05
0.51274874E-05
0.33139033E-05
0.21536946E-05
0.13891475E-05
0.88970472E-06
0.57402980E-06
0.37052999E-06
0.23842364E-06
0.15371857E-06
0.99060259E-07
0.63877351E-07
0.41163858E-07
0.26411330E-07
0.16997161E-07
0.10971548E-07
0.71211206E-08
0.46303654E-08
0.30350533E-08
0.20200506E-08
0.13587128E-08
0.92621538E-09
0.64677630E-09
0.46389123E-09
0.34185077E-09
0.25918118E-09
0.20312563E-09
0.16389223E-09
0.13577951E-09
0.11522591E-09
0.99728115E-10
0.87431284E-10
0.77402251E-10
0.68815093E-10
0.61257548E-10
0.54512388E-10
0.48188592E-10
0.42221764E-10
0.36704046E-10
0.31593308E-10
