atomic number =   82
effective nuclear charge =   82
electron count =    4
net charge =   78
basis set = approximate basis set limit (UGBS)      
exchange correlation functional = PW91PW91            
cutoff radius (picometer) =  300
number of shells =   50
prepared by = Thomas A. Manz      
prepared date = July 2010           
net magnetization =    0
density in atomic units:
0.80539727E+05
0.20696712E+01
0.23346802E-02
0.17175318E-04
0.49568071E-05
0.12471168E-05
0.94924866E-06
0.48448845E-06
0.38138399E-07
0.17036452E-06
0.11215028E-06
0.13345884E-07
0.82562135E-08
0.27383463E-07
0.26364321E-07
0.12319427E-07
0.21229110E-08
0.35817871E-09
0.25976961E-08
0.45635962E-08
0.46068944E-08
0.32539453E-08
0.16394209E-08
0.50351373E-09
0.43367889E-10
0.97579188E-10
0.37283215E-09
0.62872757E-09
0.75734535E-09
0.73447443E-09
0.60280408E-09
0.42275794E-09
0.25070057E-09
0.11706876E-09
0.35637972E-10
0.34052843E-11
0.65046297E-11
0.30306157E-10
0.61715258E-10
0.89807072E-10
0.10883091E-09
0.11703831E-09
0.11454750E-09
0.10380930E-09
0.87610696E-10
0.69146515E-10
0.50617951E-10
0.34000368E-10
0.20449951E-10
0.10543537E-10
