atomic number =   59
effective nuclear charge =   59
electron count =   54
net charge =    5
basis set = approximate basis set limit (UGBS)      
exchange correlation functional = PW91PW91            
cutoff radius (picometer) =  500
number of shells =  100
prepared by = Thomas A. Manz      
prepared date = July 2010           
net magnetization =    0
density in atomic units:
0.20164770E+06
0.37014944E+03
0.11769330E+03
0.31726210E+02
0.13127856E+02
0.10166829E+02
0.75195608E+01
0.47892504E+01
0.28749671E+01
0.16959168E+01
0.10385479E+01
0.70359212E+00
0.51388669E+00
0.39920625E+00
0.32651335E+00
0.27086115E+00
0.22268334E+00
0.18265307E+00
0.14844191E+00
0.11876075E+00
0.94647370E-01
0.75248219E-01
0.59091806E-01
0.46098560E-01
0.35951607E-01
0.27880084E-01
0.21530960E-01
0.16661327E-01
0.12811202E-01
0.98524243E-02
0.75916434E-02
0.58188760E-02
0.44690934E-02
0.34364832E-02
0.26406161E-02
0.20235083E-02
0.15489839E-02
0.11869941E-02
0.91358501E-03
0.70219993E-03
0.54006930E-03
0.41593993E-03
0.32008413E-03
0.24807896E-03
0.19224879E-03
0.14811545E-03
0.11447147E-03
0.88978137E-04
0.68922229E-04
0.53376083E-04
0.41332925E-04
0.31942705E-04
0.24758076E-04
0.19223409E-04
0.14903247E-04
0.11531909E-04
0.89008900E-05
0.68664431E-05
0.52983323E-05
0.40902364E-05
0.31527402E-05
0.24271878E-05
0.18696326E-05
0.14375031E-05
0.11039082E-05
0.84985675E-06
0.65377850E-06
0.50007344E-06
0.38227515E-06
0.29133108E-06
0.22252867E-06
0.16975814E-06
0.12910073E-06
0.98170275E-07
0.74304474E-07
0.56085995E-07
0.42249127E-07
0.31711281E-07
0.23756302E-07
0.17788032E-07
0.13246063E-07
0.98196526E-08
0.72569981E-08
0.53524634E-08
0.39521666E-08
0.29204381E-08
0.21552153E-08
0.15928805E-08
0.11799550E-08
0.87609570E-09
0.65801864E-09
0.49884613E-09
0.38308906E-09
0.30093952E-09
0.24151375E-09
0.19891309E-09
0.16908790E-09
0.14806564E-09
0.13348067E-09
0.12388052E-09
