atomic number =  105
effective nuclear charge =  105
electron count =   80
net charge =   25
basis set = approximate basis set limit (UGBS)      
exchange correlation functional = PW91PW91            
cutoff radius (picometer) =  300
number of shells =   50
prepared by = Thomas A. Manz      
prepared date = July 2010           
net magnetization =    0
density in atomic units:
0.17514203E+06
0.35723721E+03
0.12301637E+03
0.33096130E+02
0.15186513E+02
0.83429451E+01
0.40790529E+01
0.19488825E+01
0.92518771E+00
0.46662131E+00
0.24497342E+00
0.13340546E+00
0.77988490E-01
0.45653488E-01
0.26961036E-01
0.15792480E-01
0.91209421E-02
0.53798067E-02
0.31188307E-02
0.17976779E-02
0.10351016E-02
0.59403601E-03
0.34219472E-03
0.19698164E-03
0.11288516E-03
0.64495725E-04
0.36873647E-04
0.21355299E-04
0.12223790E-04
0.69507050E-05
0.39743054E-05
0.22598929E-05
0.12920601E-05
0.73727261E-06
0.42182987E-06
0.24509902E-06
0.14440482E-06
0.86127798E-07
0.51966900E-07
0.32323410E-07
0.20742752E-07
0.13579277E-07
0.91330437E-08
0.62651826E-08
0.43112092E-08
0.29647274E-08
0.20001052E-08
0.13094673E-08
0.81891099E-09
0.48314153E-09
