atomic number =   91
effective nuclear charge =   91
electron count =   86
net charge =    5
basis set = approximate basis set limit (UGBS)      
exchange correlation functional = PW91PW91            
cutoff radius (picometer) =  300
number of shells =   50
prepared by = Thomas A. Manz      
prepared date = July 2010           
net magnetization =    0
density in atomic units:
0.11614890E+06
0.30762766E+03
0.10954320E+03
0.43308353E+02
0.15332292E+02
0.78149343E+01
0.49674449E+01
0.31091492E+01
0.18416812E+01
0.11136923E+01
0.70881957E+00
0.48711687E+00
0.36477786E+00
0.28009620E+00
0.21808831E+00
0.16883278E+00
0.12923516E+00
0.99207327E-01
0.74974447E-01
0.56156125E-01
0.41807547E-01
0.30929457E-01
0.22839617E-01
0.16793681E-01
0.12282040E-01
0.89418357E-02
0.65022758E-02
0.47568288E-02
0.34538549E-02
0.24996544E-02
0.18151556E-02
0.13152636E-02
0.95642143E-03
0.69435069E-03
0.50431537E-03
0.36834730E-03
0.26989501E-03
0.19753388E-03
0.14394699E-03
0.10531101E-03
0.77304285E-04
0.56412569E-04
0.41270123E-04
0.30226754E-04
0.22064638E-04
0.16133788E-04
0.11754143E-04
0.85501260E-05
0.62100962E-05
0.45134561E-05
