atomic number =   40
effective nuclear charge =   40
electron count =   12
net charge =   28
basis set = approximate basis set limit (UGBS)      
exchange correlation functional = PW91PW91            
cutoff radius (picometer) =  500
number of shells =  100
prepared by = Thomas A. Manz      
prepared date = July 2010           
net magnetization =    0
density in atomic units:
0.55605824E+05
0.22015685E+03
0.24289911E+02
0.48983555E+01
0.23738399E+01
0.12198076E+01
0.53871459E+00
0.20566490E+00
0.76781549E-01
0.27789716E-01
0.96005797E-02
0.34135017E-02
0.11681261E-02
0.38151731E-03
0.13310697E-03
0.47763770E-04
0.16267069E-04
0.55926380E-05
0.18993770E-05
0.59603678E-06
0.17958769E-06
0.51758583E-07
0.12945921E-07
0.28572937E-08
0.65584055E-09
0.23008630E-09
0.12541476E-09
0.72773385E-10
0.51976777E-10
0.65585114E-10
0.10077202E-09
0.14008009E-09
0.16795923E-09
0.17754649E-09
0.16874273E-09
0.14538305E-09
0.11387859E-09
0.80781243E-10
0.51439811E-10
0.28184909E-10
0.12448527E-10
0.40275136E-11
0.15997160E-11
0.34309302E-11
0.77404385E-11
0.13121912E-10
0.18173702E-10
0.22066259E-10
0.24525968E-10
0.25401906E-10
0.24779298E-10
0.22923725E-10
0.20267956E-10
0.17129794E-10
0.13821025E-10
0.10597944E-10
0.76569419E-11
0.51641616E-11
0.31903523E-11
0.17484412E-11
0.79863324E-12
0.28805997E-12
0.14469965E-12
0.28405048E-12
0.62511606E-12
0.10830035E-11
0.15975334E-11
0.21225584E-11
0.26045572E-11
0.30132294E-11
0.33284237E-11
0.35475217E-11
0.36677549E-11
0.36853550E-11
0.36205247E-11
0.34709436E-11
0.32640368E-11
0.30141850E-11
0.27347770E-11
0.24399020E-11
0.21320378E-11
0.18281912E-11
0.15349693E-11
0.12636969E-11
0.10163339E-11
0.79782296E-12
0.60743608E-12
0.44497820E-12
0.31213647E-12
0.20516416E-12
0.12527052E-12
0.68417792E-13
0.32081536E-13
0.14143725E-13
0.11390498E-13
0.21183855E-13
0.40717907E-13
0.67835575E-13
0.10036394E-12
0.13604952E-12
