atomic number =  100
effective nuclear charge =  100
electron count =   68
net charge =   32
basis set = approximate basis set limit (UGBS)      
exchange correlation functional = PW91PW91            
cutoff radius (picometer) =  300
number of shells =   50
prepared by = Thomas A. Manz      
prepared date = July 2010           
net magnetization =    0
density in atomic units:
0.15281480E+06
0.33071640E+03
0.11899465E+03
0.35441265E+02
0.11424932E+02
0.47544594E+01
0.20567708E+01
0.85771966E+00
0.32128048E+00
0.11429586E+00
0.38061883E-01
0.12096349E-01
0.41819462E-02
0.14270635E-02
0.48940926E-03
0.16442724E-03
0.51720053E-04
0.16440485E-04
0.47963690E-05
0.13091288E-05
0.34282110E-06
0.88433978E-07
0.23087727E-07
0.56425749E-08
0.23476523E-08
0.46252047E-08
0.87502601E-08
0.12304186E-07
0.14146385E-07
0.13894286E-07
0.11982821E-07
0.91646557E-08
0.62488379E-08
0.37398848E-08
0.19551516E-08
0.95914965E-09
0.60790162E-09
0.70660500E-09
0.10568240E-08
0.14698324E-08
0.18187318E-08
0.20401452E-08
0.21008002E-08
0.20170630E-08
0.18182517E-08
0.15488324E-08
0.12455530E-08
0.94613195E-09
0.67640826E-09
0.45487042E-09
