atomic number =  108
effective nuclear charge =  108
electron count =   80
net charge =   28
basis set = approximate basis set limit (UGBS)      
exchange correlation functional = PW91PW91            
cutoff radius (picometer) =  400
number of shells =   75
prepared by = Thomas A. Manz      
prepared date = July 2010           
net magnetization =    0
density in atomic units:
0.18899738E+06
0.47155121E+03
0.18147932E+03
0.55411598E+02
0.21848038E+02
0.12579598E+02
0.69434638E+01
0.34165859E+01
0.16142068E+01
0.80184853E+00
0.42669189E+00
0.23860677E+00
0.13698331E+00
0.80815814E-01
0.48094895E-01
0.28570201E-01
0.16795713E-01
0.98325331E-02
0.57706893E-02
0.33923900E-02
0.19876231E-02
0.11592995E-02
0.66852086E-03
0.38619590E-03
0.22311529E-03
0.12883259E-03
0.74514137E-04
0.43355660E-04
0.24958668E-04
0.14381600E-04
0.84538506E-05
0.49654445E-05
0.28774746E-05
0.16586193E-05
0.96698898E-06
0.56268902E-06
0.32256150E-06
0.18515540E-06
0.10666503E-06
0.60661058E-07
0.34137159E-07
0.19453482E-07
0.11246438E-07
0.66692616E-08
0.41701091E-08
0.28007794E-08
0.20378803E-08
0.15886698E-08
0.12928415E-08
0.10735894E-08
0.89078311E-09
0.72850925E-09
0.58048716E-09
0.44887177E-09
0.33683134E-09
0.24332017E-09
0.16961887E-09
0.11610334E-09
0.80811045E-10
0.60790324E-10
0.53236263E-10
0.55115325E-10
0.63409646E-10
0.75552967E-10
0.89228035E-10
0.10261884E-09
0.11428310E-09
0.12349888E-09
0.12982457E-09
0.13279730E-09
0.13256625E-09
0.12959103E-09
0.12402769E-09
0.11644970E-09
0.10749052E-09
