atomic number =   90
effective nuclear charge =   90
electron count =   28
net charge =   62
basis set = approximate basis set limit (UGBS)      
exchange correlation functional = PW91PW91            
cutoff radius (picometer) =  300
number of shells =   50
prepared by = Thomas A. Manz      
prepared date = July 2010           
net magnetization =    0
density in atomic units:
0.11099233E+06
0.22084135E+03
0.12186363E+02
0.36013889E+00
0.96391989E-02
0.22113729E-03
0.55629066E-05
0.92293874E-06
0.10195818E-06
0.28432279E-06
0.21472427E-06
0.43209653E-07
0.17674513E-07
0.45250296E-07
0.46807184E-07
0.25245839E-07
0.69609842E-08
0.19274420E-08
0.44031672E-08
0.75258626E-08
0.79742799E-08
0.60641900E-08
0.34570653E-08
0.14203253E-08
0.41756668E-09
0.29867100E-09
0.63427752E-09
0.10246255E-08
0.12594349E-08
0.12656778E-08
0.10864717E-08
0.80948365E-09
0.52520488E-09
0.28875563E-09
0.13026798E-09
0.52024135E-10
0.35794416E-10
0.59647461E-10
0.10254253E-09
0.14585949E-09
0.17840192E-09
0.19551212E-09
0.19593920E-09
0.18233198E-09
0.15873908E-09
0.13001288E-09
0.99815586E-10
0.71546304E-10
0.47451092E-10
0.28856886E-10
