atomic number =   60
effective nuclear charge =   60
electron count =   30
net charge =   30
basis set = approximate basis set limit (UGBS)      
exchange correlation functional = PW91PW91            
cutoff radius (picometer) =  300
number of shells =   50
prepared by = Thomas A. Manz      
prepared date = July 2010           
net magnetization =    0
density in atomic units:
0.31016984E+05
0.18058980E+03
0.56123459E+02
0.11489690E+02
0.28786814E+01
0.10524547E+01
0.44213825E+00
0.18431059E+00
0.69638796E-01
0.25222162E-01
0.86220037E-02
0.28100703E-02
0.97933051E-03
0.32955731E-03
0.10943908E-03
0.35458124E-04
0.10898258E-04
0.35099936E-05
0.10978715E-05
0.34631552E-06
0.11329078E-06
0.38778840E-07
0.14190016E-07
0.55478391E-08
0.23669788E-08
0.12012069E-08
0.78602147E-09
0.62930317E-09
0.53143451E-09
0.43104292E-09
0.32179709E-09
0.21416732E-09
0.12454396E-09
0.60430300E-10
0.24204009E-10
0.12039847E-10
0.16155549E-10
0.29133439E-10
0.44644063E-10
0.57607676E-10
0.65532080E-10
0.67776444E-10
0.64759108E-10
0.57764248E-10
0.48266016E-10
0.37903423E-10
0.27776326E-10
0.18845677E-10
0.11661565E-10
0.64731632E-11
