atomic number =   88
effective nuclear charge =   88
electron count =   18
net charge =   70
basis set = approximate basis set limit (UGBS)      
exchange correlation functional = PW91PW91            
cutoff radius (picometer) =  300
number of shells =   50
prepared by = Thomas A. Manz      
prepared date = July 2010           
net magnetization =    0
density in atomic units:
0.10328290E+06
0.11356491E+03
0.74118466E+01
0.21823114E+00
0.54711355E-02
0.11414432E-03
0.26969160E-05
0.80799248E-06
0.77992908E-07
0.26095702E-06
0.19528424E-06
0.35216232E-07
0.13884437E-07
0.41285439E-07
0.43022823E-07
0.22779329E-07
0.57755587E-08
0.13028835E-08
0.38378540E-08
0.68798891E-08
0.73366824E-08
0.55516067E-08
0.31132521E-08
0.12207958E-08
0.30464883E-09
0.21732199E-09
0.55085608E-09
0.92878205E-09
0.11555923E-08
0.11641769E-08
0.99742326E-09
0.73870104E-09
0.47375204E-09
0.25421690E-09
0.10816417E-09
0.37351174E-10
0.24449283E-10
0.48734128E-10
0.90431246E-10
0.13204608E-09
0.16318402E-09
0.17957448E-09
0.18020847E-09
0.16756771E-09
0.14558160E-09
0.11880519E-09
0.90670929E-10
0.64422988E-10
0.42125789E-10
0.24987134E-10
