atomic number =   96
effective nuclear charge =   96
electron count =   68
net charge =   28
basis set = approximate basis set limit (UGBS)      
exchange correlation functional = PW91PW91            
cutoff radius (picometer) =  300
number of shells =   50
prepared by = Thomas A. Manz      
prepared date = July 2010           
net magnetization =    0
density in atomic units:
0.13592422E+06
0.31811880E+03
0.11469199E+03
0.39008118E+02
0.12486080E+02
0.51418538E+01
0.24220753E+01
0.11231384E+01
0.46911627E+00
0.18563306E+00
0.68805754E-01
0.24355754E-01
0.92101330E-02
0.33958864E-02
0.12450664E-02
0.44598771E-03
0.15172829E-03
0.53283813E-04
0.17912709E-04
0.59312842E-05
0.19658376E-05
0.65295478E-06
0.22227839E-06
0.79052874E-07
0.31587330E-07
0.16757049E-07
0.12608753E-07
0.11477077E-07
0.10646048E-07
0.93569650E-08
0.76114262E-08
0.56487410E-08
0.38114223E-08
0.23010744E-08
0.12476165E-08
0.65980138E-09
0.44487972E-09
0.48764348E-09
0.67442291E-09
0.89892860E-09
0.10891470E-08
0.12088148E-08
0.12387676E-08
0.11870284E-08
0.10710550E-08
0.91492652E-09
0.73948020E-09
0.56584076E-09
0.40917084E-09
0.27998098E-09
