atomic number =   94
effective nuclear charge =   94
electron count =   68
net charge =   26
basis set = approximate basis set limit (UGBS)      
exchange correlation functional = PW91PW91            
cutoff radius (picometer) =  300
number of shells =   50
prepared by = Thomas A. Manz      
prepared date = July 2010           
net magnetization =    0
density in atomic units:
0.12780993E+06
0.31231506E+03
0.11140983E+03
0.40685478E+02
0.13146378E+02
0.53289928E+01
0.25900381E+01
0.12629216E+01
0.55797952E+00
0.23370916E+00
0.91743916E-01
0.34357268E-01
0.13611180E-01
0.52303625E-02
0.19918678E-02
0.74167654E-03
0.26459779E-03
0.98322533E-04
0.35579054E-04
0.12898648E-04
0.47513868E-05
0.17697974E-05
0.67310771E-06
0.25974992E-06
0.10195500E-06
0.42418652E-07
0.20143107E-07
0.11732928E-07
0.79963520E-08
0.58894316E-08
0.43497601E-08
0.30483289E-08
0.19845559E-08
0.11732472E-08
0.63492850E-09
0.34883499E-09
0.25342853E-09
0.28397171E-09
0.38061976E-09
0.49003757E-09
0.57765903E-09
0.62714306E-09
0.63124600E-09
0.59579891E-09
0.52995330E-09
0.44654877E-09
0.35604139E-09
0.26880173E-09
0.19176231E-09
0.12965588E-09
