atomic number =   66
effective nuclear charge =   66
electron count =   48
net charge =   18
basis set = approximate basis set limit (UGBS)      
exchange correlation functional = PW91PW91            
cutoff radius (picometer) =  400
number of shells =   75
prepared by = Thomas A. Manz      
prepared date = July 2010           
net magnetization =    0
density in atomic units:
0.42287320E+05
0.30023944E+03
0.85813446E+02
0.24715830E+02
0.15953465E+02
0.10447717E+02
0.58132401E+01
0.28936932E+01
0.13915563E+01
0.70795631E+00
0.39370817E+00
0.23753712E+00
0.15201153E+00
0.10205160E+00
0.69966301E-01
0.48187800E-01
0.32988094E-01
0.22483828E-01
0.15331949E-01
0.10442674E-01
0.70911958E-02
0.47921492E-02
0.32121686E-02
0.21541605E-02
0.14438505E-02
0.96616644E-03
0.64623234E-03
0.43324698E-03
0.28734616E-03
0.19037639E-03
0.12773360E-03
0.85515589E-04
0.56621895E-04
0.37346883E-04
0.24894656E-04
0.16598173E-04
0.10988990E-04
0.73138049E-05
0.49034752E-05
0.32717251E-05
0.21738640E-05
0.14575053E-05
0.97972259E-06
0.65788839E-06
0.44336065E-06
0.29896185E-06
0.20189694E-06
0.13627248E-06
0.91554625E-07
0.61555461E-07
0.41368942E-07
0.27822791E-07
0.18611459E-07
0.12422406E-07
0.83090033E-08
0.55195430E-08
0.36389418E-08
0.23957534E-08
0.15750039E-08
0.10296211E-08
0.66903927E-09
0.43545542E-09
0.28353717E-09
0.18491136E-09
0.12176417E-09
0.81968612E-10
0.57370400E-10
0.42227163E-10
0.33129856E-10
0.27814825E-10
0.24675853E-10
0.22786334E-10
0.21542020E-10
0.20604185E-10
0.19718964E-10
