atomic number =   96
effective nuclear charge =   96
electron count =   80
net charge =   16
basis set = approximate basis set limit (UGBS)      
exchange correlation functional = PW91PW91            
cutoff radius (picometer) =  400
number of shells =   75
prepared by = Thomas A. Manz      
prepared date = July 2010           
net magnetization =    0
density in atomic units:
0.13599998E+06
0.44485345E+03
0.15239088E+03
0.68310936E+02
0.23630217E+02
0.11237375E+02
0.72886367E+01
0.46062598E+01
0.26953406E+01
0.15242000E+01
0.86644202E+00
0.50290775E+00
0.30044731E+00
0.18771634E+00
0.12094568E+00
0.79375021E-01
0.52470174E-01
0.34953594E-01
0.23519607E-01
0.15921108E-01
0.10796909E-01
0.73097469E-02
0.49180668E-02
0.33130893E-02
0.22311418E-02
0.14996780E-02
0.10071223E-02
0.67755056E-03
0.45081347E-03
0.29952233E-03
0.20147044E-03
0.13525502E-03
0.89848247E-04
0.59502756E-04
0.39867009E-04
0.26753851E-04
0.17859953E-04
0.12010380E-04
0.81504359E-05
0.55186351E-05
0.37303016E-05
0.25495287E-05
0.17503403E-05
0.12028946E-05
0.83083381E-06
0.57481196E-06
0.39848987E-06
0.27620487E-06
0.19041897E-06
0.13106781E-06
0.89949751E-07
0.61519337E-07
0.41582080E-07
0.27840489E-07
0.18488112E-07
0.12032429E-07
0.76377225E-08
0.47362869E-08
0.28527654E-08
0.16486822E-08
0.90913216E-09
0.48670606E-09
0.26370853E-09
0.16646151E-09
0.14518522E-09
0.16499184E-09
0.20327853E-09
0.24573896E-09
0.28450556E-09
0.31443501E-09
0.33385733E-09
0.34138944E-09
0.34018724E-09
0.33066858E-09
0.31313513E-09
