atomic number =  104
effective nuclear charge =  104
electron count =    2
net charge =  102
basis set = approximate basis set limit (UGBS)      
exchange correlation functional = PW91PW91            
cutoff radius (picometer) =  300
number of shells =   50
prepared by = Thomas A. Manz      
prepared date = July 2010           
net magnetization =    0
density in atomic units:
0.13836084E+06
0.12470436E-02
0.96573167E-04
0.31005075E-04
0.67179449E-05
0.18795142E-05
0.12744028E-05
0.69038504E-06
0.50411860E-07
0.22854069E-06
0.15466148E-06
0.19144407E-07
0.10611917E-07
0.36535006E-07
0.35641378E-07
0.16832260E-07
0.29647407E-08
0.45763765E-09
0.34249705E-08
0.60874044E-08
0.61802430E-08
0.43830535E-08
0.22191524E-08
0.68743333E-09
0.60744368E-10
0.12675788E-09
0.49310972E-09
0.83645774E-09
0.10107062E-08
0.98221764E-09
0.80738072E-09
0.56724286E-09
0.33702882E-09
0.15786730E-09
0.48366464E-10
0.47196080E-11
0.84564526E-11
0.40034261E-10
0.81930809E-10
0.11950194E-09
0.14502390E-09
0.15607617E-09
0.15291018E-09
0.13865574E-09
0.11709861E-09
0.92472689E-10
0.67732889E-10
0.45536613E-10
0.27418281E-10
0.14157310E-10
