atomic number =   84
effective nuclear charge =   84
electron count =   80
net charge =    4
basis set = approximate basis set limit (UGBS)      
exchange correlation functional = PW91PW91            
cutoff radius (picometer) =  300
number of shells =   50
prepared by = Thomas A. Manz      
prepared date = July 2010           
net magnetization =    0
density in atomic units:
0.91016477E+05
0.28796265E+03
0.89279739E+02
0.45573891E+02
0.17689234E+02
0.71951222E+01
0.42144775E+01
0.29264603E+01
0.20032248E+01
0.13411597E+01
0.87022245E+00
0.55787724E+00
0.37068263E+00
0.24699810E+00
0.16806445E+00
0.11591022E+00
0.80980703E-01
0.58435760E-01
0.42387977E-01
0.31037498E-01
0.22931486E-01
0.17035075E-01
0.12750375E-01
0.95770005E-02
0.72021396E-02
0.54215761E-02
0.40928642E-02
0.31151164E-02
0.23603996E-02
0.17858298E-02
0.13558073E-02
0.10274814E-02
0.78074890E-03
0.59202075E-03
0.44869413E-03
0.34139398E-03
0.26026147E-03
0.19805210E-03
0.15007899E-03
0.11409967E-03
0.87007873E-04
0.66038425E-04
0.50273382E-04
0.38351987E-04
0.29213259E-04
0.22310611E-04
0.17021104E-04
0.12989239E-04
0.99147110E-05
0.75904663E-05
