atomic number =   90
effective nuclear charge =   90
electron count =   78
net charge =   12
basis set = approximate basis set limit (UGBS)      
exchange correlation functional = PW91PW91            
cutoff radius (picometer) =  300
number of shells =   50
prepared by = Thomas A. Manz      
prepared date = July 2010           
net magnetization =    0
density in atomic units:
0.11231548E+06
0.30415558E+03
0.10650421E+03
0.43893639E+02
0.15265598E+02
0.73797927E+01
0.47994132E+01
0.31283484E+01
0.18675146E+01
0.10586499E+01
0.56813133E+00
0.29458144E+00
0.15781659E+00
0.82602546E-01
0.43151163E-01
0.22284906E-01
0.11340652E-01
0.59746127E-02
0.31122901E-02
0.16233644E-02
0.84968901E-03
0.44312238E-03
0.23134748E-03
0.12014996E-03
0.61832281E-04
0.31696774E-04
0.16327098E-04
0.86239634E-05
0.45598190E-05
0.24355079E-05
0.13325734E-05
0.73662835E-06
0.41392767E-06
0.23304084E-06
0.13097876E-06
0.73800862E-07
0.41257923E-07
0.22628639E-07
0.12072261E-07
0.63739534E-08
0.33745993E-08
0.18106895E-08
0.10526839E-08
0.69611872E-09
0.52532267E-09
0.43551357E-09
0.37338049E-09
0.31832362E-09
0.26433672E-09
0.21257507E-09
