atomic number =  106
effective nuclear charge =  106
electron count =  100
net charge =    6
basis set = approximate basis set limit (UGBS)      
exchange correlation functional = PW91PW91            
cutoff radius (picometer) =  500
number of shells =  100
prepared by = Thomas A. Manz      
prepared date = July 2010           
net magnetization =    0
density in atomic units:
0.12479714E+07
0.80287653E+03
0.22624500E+03
0.69411919E+02
0.26176495E+02
0.18500801E+02
0.12848103E+02
0.79955869E+01
0.49593024E+01
0.31598866E+01
0.20942817E+01
0.14595640E+01
0.10204092E+01
0.71030277E+00
0.50483680E+00
0.35880831E+00
0.24980530E+00
0.17445095E+00
0.12137121E+00
0.83225504E-01
0.57380915E-01
0.39838992E-01
0.27366173E-01
0.18750526E-01
0.12922784E-01
0.88801654E-02
0.60921852E-02
0.42095385E-02
0.28931657E-02
0.19953311E-02
0.13845371E-02
0.95588621E-03
0.66326442E-03
0.46168145E-03
0.32131746E-03
0.22286455E-03
0.15427501E-03
0.10684777E-03
0.74355186E-04
0.51580450E-04
0.35741428E-04
0.24786921E-04
0.17145130E-04
0.11964787E-04
0.83465511E-05
0.57732268E-05
0.40105620E-05
0.28118295E-05
0.19632507E-05
0.13719881E-05
0.96011195E-06
0.67087655E-06
0.47130854E-06
0.33243603E-06
0.23419706E-06
0.16480364E-06
0.11566305E-06
0.81226560E-07
0.57106536E-07
0.40221096E-07
0.28319359E-07
0.19947656E-07
0.14100653E-07
0.99855182E-08
0.70948940E-08
0.51000693E-08
0.37032195E-08
0.27165277E-08
0.20224702E-08
0.15348410E-08
0.11967356E-08
0.95586572E-09
0.78171453E-09
0.65654182E-09
0.55953403E-09
0.48523546E-09
0.42514423E-09
0.37436013E-09
0.33116554E-09
0.29241723E-09
0.25759750E-09
0.22520384E-09
0.19547888E-09
0.16822414E-09
0.14353821E-09
0.12106895E-09
0.10091319E-09
0.82971241E-10
0.67238680E-10
0.53518332E-10
0.42081172E-10
0.32588706E-10
0.24787830E-10
0.18810184E-10
0.14353170E-10
0.11203112E-10
0.92717847E-11
0.83053512E-11
0.81605547E-11
0.86973042E-11
