atomic number =   99
effective nuclear charge =   99
electron count =   86
net charge =   13
basis set = approximate basis set limit (UGBS)      
exchange correlation functional = PW91PW91            
cutoff radius (picometer) =  300
number of shells =   50
prepared by = Thomas A. Manz      
prepared date = July 2010           
net magnetization =    0
density in atomic units:
0.14859978E+06
0.33407956E+03
0.12226089E+03
0.37092304E+02
0.14845429E+02
0.84657478E+01
0.47009592E+01
0.25482521E+01
0.14067657E+01
0.86559606E+00
0.58607316E+00
0.42264235E+00
0.31900507E+00
0.23920016E+00
0.17848849E+00
0.13113078E+00
0.94898008E-01
0.69078512E-01
0.49543638E-01
0.35301078E-01
0.25082078E-01
0.17760469E-01
0.12594472E-01
0.89190369E-02
0.62966952E-02
0.44356333E-02
0.31271048E-02
0.22232018E-02
0.15699521E-02
0.11058891E-02
0.78253320E-03
0.55283844E-03
0.39232671E-03
0.27813134E-03
0.19739121E-03
0.14104607E-03
0.10120345E-03
0.72587492E-04
0.51862186E-04
0.37237682E-04
0.26847241E-04
0.19246056E-04
0.13838618E-04
0.99640738E-05
0.71502977E-05
0.51374277E-05
0.36775891E-05
0.26263010E-05
0.18707864E-05
0.13335630E-05
