atomic number =   80
effective nuclear charge =   80
electron count =   78
net charge =    2
basis set = approximate basis set limit (UGBS)      
exchange correlation functional = PW91PW91            
cutoff radius (picometer) =  400
number of shells =   75
prepared by = Thomas A. Manz      
prepared date = July 2010           
net magnetization =    0
density in atomic units:
0.78163172E+05
0.40637271E+03
0.99277626E+02
0.58194946E+02
0.31545771E+02
0.13592521E+02
0.63935580E+01
0.37208829E+01
0.25387385E+01
0.18508972E+01
0.13651000E+01
0.99689043E+00
0.71952879E+00
0.51925188E+00
0.37442023E+00
0.27002561E+00
0.19485125E+00
0.14160602E+00
0.10422123E+00
0.77512808E-01
0.58111165E-01
0.43772761E-01
0.33029843E-01
0.25081871E-01
0.19144116E-01
0.14665512E-01
0.11282216E-01
0.87284753E-02
0.67312634E-02
0.52077444E-02
0.40727737E-02
0.31890359E-02
0.24861298E-02
0.19380250E-02
0.15232847E-02
0.11988444E-02
0.94107026E-03
0.74192247E-03
0.58801397E-03
0.46516722E-03
0.36746275E-03
0.29204195E-03
0.23256510E-03
0.18524716E-03
0.14796465E-03
0.11831913E-03
0.94780655E-04
0.75957309E-04
0.60801201E-04
0.48746813E-04
0.39138773E-04
0.31484102E-04
0.25301748E-04
0.20351841E-04
0.16432819E-04
0.13251204E-04
0.10675814E-04
0.86203554E-05
0.69774187E-05
0.56490239E-05
0.45746747E-05
0.37156187E-05
0.30208253E-05
0.24561782E-05
0.19981212E-05
0.16272301E-05
0.13283537E-05
0.10838185E-05
0.88393796E-06
0.72263305E-06
0.59218547E-06
0.48385175E-06
0.39492247E-06
0.32266843E-06
0.26405036E-06
