atomic number =   68
effective nuclear charge =   68
electron count =   48
net charge =   20
basis set = approximate basis set limit (UGBS)      
exchange correlation functional = PW91PW91            
cutoff radius (picometer) =  400
number of shells =   75
prepared by = Thomas A. Manz      
prepared date = July 2010           
net magnetization =    0
density in atomic units:
0.46560094E+05
0.31576672E+03
0.82973213E+02
0.25322773E+02
0.16989187E+02
0.10458189E+02
0.54790950E+01
0.26113195E+01
0.12247530E+01
0.62142926E+00
0.34958246E+00
0.21386841E+00
0.13797994E+00
0.92617489E-01
0.63072145E-01
0.42960141E-01
0.29005736E-01
0.19472195E-01
0.13072226E-01
0.87652877E-02
0.58595967E-02
0.38989154E-02
0.25733528E-02
0.17001618E-02
0.11232602E-02
0.74122607E-03
0.48918481E-03
0.32377490E-03
0.21205591E-03
0.13876140E-03
0.92006383E-04
0.60871880E-04
0.39814775E-04
0.25931044E-04
0.17067387E-04
0.11231409E-04
0.73331862E-05
0.48115098E-05
0.31790300E-05
0.20888222E-05
0.13658042E-05
0.90105414E-06
0.59577826E-06
0.39347549E-06
0.26076358E-06
0.17296998E-06
0.11493211E-06
0.76362248E-07
0.50542450E-07
0.33517093E-07
0.22247653E-07
0.14814619E-07
0.98292192E-08
0.65249979E-08
0.43575716E-08
0.29016773E-08
0.19279598E-08
0.12873446E-08
0.86475083E-09
0.58257771E-09
0.39443185E-09
0.27135688E-09
0.18932964E-09
0.13475755E-09
0.98918429E-10
0.75253734E-10
0.59969869E-10
0.50005250E-10
0.43317266E-10
0.38950041E-10
0.35922255E-10
0.33535088E-10
0.31557385E-10
0.29778763E-10
0.28015968E-10
