atomic number =   97
effective nuclear charge =   97
electron count =   80
net charge =   17
basis set = approximate basis set limit (UGBS)      
exchange correlation functional = PW91PW91            
cutoff radius (picometer) =  400
number of shells =   75
prepared by = Thomas A. Manz      
prepared date = July 2010           
net magnetization =    0
density in atomic units:
0.14014520E+06
0.44599884E+03
0.15579997E+03
0.67505836E+02
0.23187433E+02
0.11339225E+02
0.73458133E+01
0.45532250E+01
0.26098020E+01
0.14527642E+01
0.81715953E+00
0.47139230E+00
0.28071082E+00
0.17508812E+00
0.11263759E+00
0.73764287E-01
0.48603661E-01
0.32240327E-01
0.21583267E-01
0.14526170E-01
0.97892797E-02
0.65839081E-02
0.43989467E-02
0.29426953E-02
0.19678345E-02
0.13133439E-02
0.87580609E-03
0.58510987E-03
0.38656517E-03
0.25500634E-03
0.17036605E-03
0.11357560E-03
0.74917130E-04
0.49261562E-04
0.32782955E-04
0.21850583E-04
0.14492872E-04
0.96840467E-05
0.65348445E-05
0.44002986E-05
0.29601731E-05
0.20145303E-05
0.13781612E-05
0.94431971E-06
0.65098794E-06
0.44985833E-06
0.31154457E-06
0.21573877E-06
0.14872751E-06
0.10238453E-06
0.70272819E-07
0.48031104E-07
0.32428506E-07
0.21657149E-07
0.14319594E-07
0.92574179E-08
0.58171903E-08
0.35558909E-08
0.21024018E-08
0.11882473E-08
0.64334849E-09
0.34803110E-09
0.20980397E-09
0.16860145E-09
0.18354600E-09
0.22620708E-09
0.27801692E-09
0.32809658E-09
0.36976622E-09
0.39897985E-09
0.41515644E-09
0.41840495E-09
0.41056705E-09
0.39487905E-09
0.37063222E-09
