atomic number =   96
effective nuclear charge =   96
electron count =   46
net charge =   50
basis set = approximate basis set limit (UGBS)      
exchange correlation functional = PW91PW91            
cutoff radius (picometer) =  300
number of shells =   50
prepared by = Thomas A. Manz      
prepared date = July 2010           
net magnetization =    0
density in atomic units:
0.13555619E+06
0.24123193E+03
0.68969116E+02
0.23897980E+02
0.52527895E+01
0.80816150E+00
0.11432727E+00
0.17946824E-01
0.24930513E-02
0.34845714E-03
0.52871688E-04
0.84648000E-05
0.15536828E-05
0.28729804E-06
0.86894765E-07
0.38121279E-07
0.13009827E-07
0.57743059E-08
0.85623304E-08
0.12439457E-07
0.12751840E-07
0.98104298E-08
0.58996199E-08
0.28089484E-08
0.12121895E-08
0.90951918E-09
0.12914506E-08
0.17820895E-08
0.20689273E-08
0.20396413E-08
0.17512497E-08
0.13261817E-08
0.89340035E-09
0.53165461E-09
0.28485395E-09
0.15680091E-09
0.12121854E-09
0.14600370E-09
0.20046499E-09
0.25734381E-09
0.29991040E-09
0.32087086E-09
0.31814967E-09
0.29536051E-09
0.25813848E-09
0.21359089E-09
0.16691422E-09
0.12321540E-09
0.85742830E-10
0.56471095E-10
