atomic number =  101
effective nuclear charge =  101
electron count =   10
net charge =   91
basis set = approximate basis set limit (UGBS)      
exchange correlation functional = PW91PW91            
cutoff radius (picometer) =  300
number of shells =   50
prepared by = Thomas A. Manz      
prepared date = July 2010           
net magnetization =    0
density in atomic units:
0.14902784E+06
0.99386114E+00
0.34211713E-03
0.47577571E-04
0.10743218E-04
0.29505411E-05
0.20495115E-05
0.11001057E-05
0.86350866E-07
0.36792147E-06
0.24889010E-06
0.31947348E-07
0.17691143E-07
0.58928112E-07
0.57536589E-07
0.27382789E-07
0.50179163E-08
0.86038504E-09
0.55514926E-08
0.98217328E-08
0.99920383E-08
0.71187030E-08
0.36356076E-08
0.11550915E-08
0.12634592E-09
0.21666743E-09
0.79800988E-09
0.13492517E-08
0.16322897E-08
0.15899803E-08
0.13110182E-08
0.92519353E-09
0.55357513E-09
0.26298549E-09
0.84126865E-10
0.11484249E-10
0.15675544E-10
0.65335987E-10
0.13223724E-09
0.19264042E-09
0.23397320E-09
0.25225766E-09
0.24757266E-09
0.22492669E-09
0.19040154E-09
0.15077746E-09
0.11086242E-09
0.74928938E-10
0.45506075E-10
0.23879751E-10
