atomic number =   70
effective nuclear charge =   70
electron count =   48
net charge =   22
basis set = approximate basis set limit (UGBS)      
exchange correlation functional = PW91PW91            
cutoff radius (picometer) =  500
number of shells =  100
prepared by = Thomas A. Manz      
prepared date = July 2010           
net magnetization =    0
density in atomic units:
0.35307784E+06
0.46421649E+03
0.10969537E+03
0.28878452E+02
0.18867811E+02
0.12349469E+02
0.67323508E+01
0.32316246E+01
0.15766010E+01
0.80829859E+00
0.44681501E+00
0.27520797E+00
0.17740825E+00
0.11742773E+00
0.81109330E-01
0.56559626E-01
0.38743820E-01
0.26647640E-01
0.18245136E-01
0.12283503E-01
0.83006639E-02
0.56397025E-02
0.37814316E-02
0.25244132E-02
0.16937006E-02
0.11316984E-02
0.75413368E-03
0.50603331E-03
0.33716828E-03
0.22522348E-03
0.15121735E-03
0.10081738E-03
0.67466048E-04
0.45231394E-04
0.30276304E-04
0.20165055E-04
0.13388418E-04
0.88880170E-05
0.59297249E-05
0.39420443E-05
0.26177577E-05
0.17400463E-05
0.11533957E-05
0.77227725E-06
0.51690830E-06
0.34267441E-06
0.22818531E-06
0.15342967E-06
0.10266258E-06
0.68722137E-07
0.46067168E-07
0.30831814E-07
0.20777181E-07
0.14053416E-07
0.95076960E-08
0.64411076E-08
0.43540189E-08
0.29614116E-08
0.20205959E-08
0.13897856E-08
0.96133868E-09
0.67025591E-09
0.47346499E-09
0.33844488E-09
0.24581689E-09
0.18364298E-09
0.14064008E-09
0.11074148E-09
0.90270659E-10
0.76053740E-10
0.66372942E-10
0.59440411E-10
0.54382835E-10
0.50442917E-10
0.47151394E-10
0.44209483E-10
0.41394818E-10
0.38683858E-10
0.35895585E-10
0.33143547E-10
0.30289583E-10
0.27446267E-10
0.24614630E-10
0.21847442E-10
0.19228692E-10
0.16775010E-10
0.14472669E-10
0.12366849E-10
0.10469924E-10
0.87648751E-11
0.73188972E-11
0.60688459E-11
0.50219607E-11
0.41855764E-11
0.35378543E-11
0.30448461E-11
0.27154416E-11
0.25042056E-11
0.24035836E-11
0.23965688E-11
