atomic number =   86
effective nuclear charge =   86
electron count =   12
net charge =   74
basis set = approximate basis set limit (UGBS)      
exchange correlation functional = PW91PW91            
cutoff radius (picometer) =  300
number of shells =   50
prepared by = Thomas A. Manz      
prepared date = July 2010           
net magnetization =    0
density in atomic units:
0.96202570E+05
0.32877224E+02
0.20993125E+01
0.60828343E-01
0.14235465E-02
0.22380054E-04
0.17491690E-05
0.67695652E-06
0.51433901E-07
0.22555461E-06
0.14969122E-06
0.18162069E-07
0.11096038E-07
0.36564781E-07
0.35265391E-07
0.16533697E-07
0.28908878E-08
0.50441107E-09
0.34832330E-08
0.61103176E-08
0.61730194E-08
0.43657429E-08
0.22060223E-08
0.68307027E-09
0.63692669E-10
0.13349823E-09
0.50049725E-09
0.84277796E-09
0.10152911E-08
0.98537545E-09
0.80925489E-09
0.56836863E-09
0.33777214E-09
0.15841158E-09
0.48914671E-10
0.53253890E-11
0.91605196E-11
0.40829999E-10
0.82829597E-10
0.12042135E-09
0.14591355E-09
0.15698809E-09
0.15371118E-09
0.13938341E-09
0.11772371E-09
0.92995597E-10
0.68153407E-10
0.45849439E-10
0.27652198E-10
0.14327601E-10
