atomic number =   74
effective nuclear charge =   74
electron count =   54
net charge =   20
basis set = approximate basis set limit (UGBS)      
exchange correlation functional = PW91PW91            
cutoff radius (picometer) =  400
number of shells =   75
prepared by = Thomas A. Manz      
prepared date = July 2010           
net magnetization =    0
density in atomic units:
0.61063508E+05
0.35822455E+03
0.75027130E+02
0.30710814E+02
0.19845770E+02
0.97437544E+01
0.44168100E+01
0.21988635E+01
0.13314173E+01
0.94923127E+00
0.71480197E+00
0.53495306E+00
0.39080578E+00
0.28035989E+00
0.19731215E+00
0.13640068E+00
0.92687145E-01
0.62420685E-01
0.42014509E-01
0.28260065E-01
0.18967489E-01
0.12683456E-01
0.84214713E-02
0.56033051E-02
0.37331551E-02
0.24884103E-02
0.16622073E-02
0.11157653E-02
0.74306229E-03
0.49547455E-03
0.33515578E-03
0.22653428E-03
0.15159343E-03
0.10108411E-03
0.68074391E-04
0.45812834E-04
0.30581268E-04
0.20490406E-04
0.13805992E-04
0.92434884E-05
0.61546612E-05
0.41295862E-05
0.27750350E-05
0.18618824E-05
0.12529899E-05
0.84385658E-06
0.56914013E-06
0.38365690E-06
0.25760542E-06
0.17322724E-06
0.11652900E-06
0.78496512E-07
0.52661857E-07
0.35302371E-07
0.23787051E-07
0.15968109E-07
0.10699011E-07
0.72122686E-08
0.49033213E-08
0.33603378E-08
0.23320508E-08
0.16555122E-08
0.12052538E-08
0.90445906E-09
0.69998329E-09
0.56022276E-09
0.46270679E-09
0.39135897E-09
0.33724890E-09
0.29513625E-09
0.26088831E-09
0.23057825E-09
0.20374662E-09
0.17959116E-09
0.15744957E-09
