atomic number =  100
effective nuclear charge =  100
electron count =   28
net charge =   72
basis set = approximate basis set limit (UGBS)      
exchange correlation functional = PW91PW91            
cutoff radius (picometer) =  300
number of shells =   50
prepared by = Thomas A. Manz      
prepared date = July 2010           
net magnetization =    0
density in atomic units:
0.15081377E+06
0.19035605E+03
0.54609332E+01
0.85870542E-01
0.12774551E-02
0.18855999E-04
0.27804847E-05
0.12976712E-05
0.12520198E-06
0.44233857E-06
0.29875073E-06
0.42134118E-07
0.23295003E-07
0.71041555E-07
0.69373677E-07
0.33595619E-07
0.67213541E-08
0.14189790E-08
0.67912191E-08
0.11839968E-07
0.12084008E-07
0.86877741E-08
0.45206190E-08
0.15147770E-08
0.23349811E-09
0.30013694E-09
0.97308683E-09
0.16268821E-08
0.19700304E-08
0.19274038E-08
0.15990160E-08
0.11386557E-08
0.69134726E-09
0.33824074E-09
0.11775496E-09
0.24846035E-10
0.25189748E-10
0.81550329E-10
0.16005537E-09
0.23207963E-09
0.28211983E-09
0.30491659E-09
0.30021671E-09
0.27386196E-09
0.23294217E-09
0.18554468E-09
0.13748948E-09
0.93958633E-10
0.58080693E-10
0.31479715E-10
