atomic number =   94
effective nuclear charge =   94
electron count =   80
net charge =   14
basis set = approximate basis set limit (UGBS)      
exchange correlation functional = PW91PW91            
cutoff radius (picometer) =  300
number of shells =   50
prepared by = Thomas A. Manz      
prepared date = July 2010           
net magnetization =    0
density in atomic units:
0.12787959E+06
0.31634976E+03
0.11544587E+03
0.41007473E+02
0.14570602E+02
0.78778877E+01
0.49097238E+01
0.29313118E+01
0.16279104E+01
0.89408785E+00
0.49033314E+00
0.27606696E+00
0.16801882E+00
0.10425942E+00
0.66386655E-01
0.42590674E-01
0.27336428E-01
0.17981717E-01
0.11728397E-01
0.76389615E-02
0.49781650E-02
0.32359548E-02
0.21078377E-02
0.13701307E-02
0.88615954E-03
0.57089550E-03
0.36764264E-03
0.23904862E-03
0.15400736E-03
0.98825578E-04
0.63767729E-04
0.41058844E-04
0.26597512E-04
0.17216173E-04
0.11171511E-04
0.73176598E-05
0.48248203E-05
0.31837003E-05
0.20929710E-05
0.13853485E-05
0.92229811E-06
0.60957473E-06
0.40388844E-06
0.26768677E-06
0.17609942E-06
0.11558209E-06
0.75054075E-07
0.48235936E-07
0.30575734E-07
0.19142501E-07
