atomic number =   65
effective nuclear charge =   65
electron count =   48
net charge =   17
basis set = approximate basis set limit (UGBS)      
exchange correlation functional = PW91PW91            
cutoff radius (picometer) =  400
number of shells =   75
prepared by = Thomas A. Manz      
prepared date = July 2010           
net magnetization =    0
density in atomic units:
0.40253020E+05
0.29225391E+03
0.87115227E+02
0.24589558E+02
0.15402012E+02
0.10379228E+02
0.59586744E+01
0.30378661E+01
0.14835106E+01
0.75787753E+00
0.41975886E+00
0.25149378E+00
0.16010435E+00
0.10733872E+00
0.73750190E-01
0.51034037E-01
0.35160307E-01
0.24140846E-01
0.16589608E-01
0.11388613E-01
0.77952337E-02
0.53094407E-02
0.35870387E-02
0.24238885E-02
0.16366623E-02
0.11029633E-02
0.74277516E-03
0.50121994E-03
0.33460313E-03
0.22309516E-03
0.15058783E-03
0.10142794E-03
0.67583875E-04
0.44865690E-04
0.30102034E-04
0.20204476E-04
0.13470725E-04
0.90309468E-05
0.60989660E-05
0.41005783E-05
0.27464444E-05
0.18561070E-05
0.12576271E-05
0.85140806E-06
0.57835882E-06
0.39314676E-06
0.26759096E-06
0.18197368E-06
0.12316404E-06
0.83385572E-07
0.56394157E-07
0.38128331E-07
0.25623109E-07
0.17157038E-07
0.11503436E-07
0.76442399E-08
0.50326250E-08
0.32995444E-08
0.21541213E-08
0.13932041E-08
0.89130597E-09
0.56769983E-09
0.35908487E-09
0.22531356E-09
0.14108625E-09
0.89181926E-10
0.57917893E-10
0.39300872E-10
0.28667924E-10
0.22845757E-10
0.19732301E-10
0.18087349E-10
0.17124933E-10
0.16464659E-10
0.15844385E-10
