atomic number =   51
effective nuclear charge =   51
electron count =   48
net charge =    3
basis set = approximate basis set limit (UGBS)      
exchange correlation functional = PW91PW91            
cutoff radius (picometer) =  500
number of shells =  100
prepared by = Thomas A. Manz      
prepared date = July 2010           
net magnetization =    0
density in atomic units:
0.12447002E+06
0.31553430E+03
0.96072182E+02
0.38560707E+02
0.12736727E+02
0.64142756E+01
0.47526751E+01
0.38647566E+01
0.30126486E+01
0.21907525E+01
0.15191311E+01
0.10458810E+01
0.70402116E+00
0.47007993E+00
0.32485226E+00
0.22881201E+00
0.16161583E+00
0.11745149E+00
0.87225817E-01
0.65551691E-01
0.50479263E-01
0.39677635E-01
0.31362243E-01
0.24993360E-01
0.20129306E-01
0.16264774E-01
0.13179378E-01
0.10746286E-01
0.87491693E-02
0.71437657E-02
0.58522723E-02
0.47814860E-02
0.39160885E-02
0.32117162E-02
0.26329311E-02
0.21533296E-02
0.17589640E-02
0.14368630E-02
0.11766949E-02
0.96157769E-03
0.78538281E-03
0.64136024E-03
0.52288675E-03
0.42823193E-03
0.35034071E-03
0.28507598E-03
0.23241166E-03
0.19026767E-03
0.15527285E-03
0.12670153E-03
0.10339128E-03
0.84251908E-04
0.68845220E-04
0.56360750E-04
0.46100828E-04
0.37685790E-04
0.30766580E-04
0.25125881E-04
0.20538157E-04
0.16803873E-04
0.13743837E-04
0.11238846E-04
0.91997172E-05
0.75248709E-05
0.61512801E-05
0.50435247E-05
0.41331291E-05
0.33774372E-05
0.27602246E-05
0.22532217E-05
0.18433906E-05
0.15082641E-05
0.12325668E-05
0.10083854E-05
0.82341842E-06
0.67196430E-06
0.54859055E-06
0.44747901E-06
0.36514990E-06
0.29842553E-06
0.24340355E-06
0.19824560E-06
0.16133859E-06
0.13128978E-06
0.10701292E-06
0.87319172E-07
0.71163875E-07
0.57993258E-07
0.47240139E-07
0.38390031E-07
0.31259670E-07
0.25422841E-07
0.20635675E-07
0.16783719E-07
0.13631949E-07
0.11063944E-07
0.89903924E-08
0.72916921E-08
0.59024323E-08
0.47802891E-08
