atomic number =  105
effective nuclear charge =  105
electron count =   30
net charge =   75
basis set = approximate basis set limit (UGBS)      
exchange correlation functional = PW91PW91            
cutoff radius (picometer) =  300
number of shells =   50
prepared by = Thomas A. Manz      
prepared date = July 2010           
net magnetization =    0
density in atomic units:
0.17432497E+06
0.17945383E+03
0.11917853E+02
0.15760193E+01
0.15881126E+00
0.10131012E-01
0.57305442E-03
0.40635292E-04
0.21939020E-05
0.64620576E-06
0.37443027E-06
0.48274124E-07
0.28325696E-07
0.89368136E-07
0.86438071E-07
0.41001030E-07
0.75587216E-08
0.14350514E-08
0.85109901E-08
0.14896457E-07
0.15107794E-07
0.10752108E-07
0.54945621E-08
0.17548719E-08
0.20569124E-09
0.34301573E-09
0.12198741E-08
0.20503650E-08
0.24762667E-08
0.24106555E-08
0.19881512E-08
0.14039836E-08
0.84145846E-09
0.40126411E-09
0.13008417E-09
0.19621083E-10
0.25494117E-10
0.10028704E-09
0.20130453E-09
0.29265088E-09
0.35517767E-09
0.38291553E-09
0.37584752E-09
0.34159831E-09
0.28938599E-09
0.22939116E-09
0.16882555E-09
0.11428653E-09
0.69598868E-10
0.36719801E-10
