atomic number =   64
effective nuclear charge =   64
electron count =    2
net charge =   62
basis set = approximate basis set limit (UGBS)      
exchange correlation functional = PW91PW91            
cutoff radius (picometer) =  300
number of shells =   50
prepared by = Thomas A. Manz      
prepared date = July 2010           
net magnetization =    0
density in atomic units:
0.32295738E+05
0.28869530E-03
0.15886944E-04
0.52710006E-05
0.12078024E-05
0.31882041E-06
0.23160479E-06
0.12125798E-06
0.92073886E-08
0.41534289E-07
0.27676769E-07
0.33508727E-08
0.19727346E-08
0.66564372E-08
0.64473022E-08
0.30273497E-08
0.52699795E-09
0.85210471E-10
0.62773758E-09
0.11088100E-08
0.11223336E-08
0.79421097E-09
0.40111311E-09
0.12369100E-09
0.10782432E-10
0.23404587E-10
0.90204080E-10
0.15254910E-09
0.18401922E-09
0.17864027E-09
0.14673451E-09
0.10300168E-09
0.61134396E-10
0.28589646E-10
0.87316604E-11
0.84273631E-12
0.15600830E-11
0.73272213E-11
0.14956515E-10
0.21788595E-10
0.26426873E-10
0.28425340E-10
0.27836778E-10
0.25234290E-10
0.21305863E-10
0.16818063E-10
0.12315577E-10
0.82762660E-11
0.49803881E-11
0.25692358E-11
