atomic number =   92
effective nuclear charge =   92
electron count =   28
net charge =   64
basis set = approximate basis set limit (UGBS)      
exchange correlation functional = PW91PW91            
cutoff radius (picometer) =  300
number of shells =   50
prepared by = Thomas A. Manz      
prepared date = July 2010           
net magnetization =    0
density in atomic units:
0.11849500E+06
0.21604039E+03
0.10470107E+02
0.27285373E+00
0.64791678E-02
0.13547720E-03
0.40455379E-05
0.99441274E-06
0.11445704E-06
0.30924912E-06
0.22896229E-06
0.44213113E-07
0.18918222E-07
0.49337107E-07
0.50476977E-07
0.26761223E-07
0.70807284E-08
0.19190414E-08
0.47947402E-08
0.82088842E-08
0.86367056E-08
0.65044699E-08
0.36538421E-08
0.14589759E-08
0.40326431E-09
0.30560515E-09
0.68961004E-09
0.11199850E-08
0.13723718E-08
0.13721918E-08
0.11707725E-08
0.86559099E-09
0.55561122E-09
0.30019820E-09
0.13104384E-09
0.49576673E-10
0.35189834E-10
0.63607668E-10
0.11178294E-09
0.15950063E-09
0.19481400E-09
0.21296330E-09
0.21267911E-09
0.19723338E-09
0.17100601E-09
0.13937825E-09
0.10635227E-09
0.75643422E-10
0.49635716E-10
0.29696540E-10
