atomic number =   69
effective nuclear charge =   69
electron count =   54
net charge =   15
basis set = approximate basis set limit (UGBS)      
exchange correlation functional = PW91PW91            
cutoff radius (picometer) =  500
number of shells =  100
prepared by = Thomas A. Manz      
prepared date = July 2010           
net magnetization =    0
density in atomic units:
0.33696753E+06
0.45655365E+03
0.11168493E+03
0.29049999E+02
0.18887283E+02
0.12537577E+02
0.69313507E+01
0.34469142E+01
0.18451830E+01
0.11286091E+01
0.79056370E+00
0.61211312E+00
0.48494008E+00
0.38287777E+00
0.30362061E+00
0.23819610E+00
0.18247348E+00
0.13910572E+00
0.10512172E+00
0.78210987E-01
0.58235683E-01
0.43470010E-01
0.32100245E-01
0.23616908E-01
0.17438820E-01
0.12836424E-01
0.94328951E-02
0.69697918E-02
0.51254765E-02
0.37788569E-02
0.27980634E-02
0.20627005E-02
0.15260126E-02
0.11315045E-02
0.83882606E-03
0.62010292E-03
0.45789260E-03
0.33847208E-03
0.25138858E-03
0.18637962E-03
0.13822981E-03
0.10265757E-03
0.76150158E-04
0.56934714E-04
0.42560001E-04
0.31598542E-04
0.23541770E-04
0.17654775E-04
0.13185890E-04
0.98460005E-05
0.73509918E-05
0.54741786E-05
0.40907566E-05
0.30620231E-05
0.22882357E-05
0.17059822E-05
0.12684321E-05
0.94253943E-06
0.70078289E-06
0.52137614E-06
0.38760155E-06
0.28785141E-06
0.21423524E-06
0.15928306E-06
0.11845596E-06
0.88517062E-07
0.66232580E-07
0.49419619E-07
0.36946325E-07
0.27635689E-07
0.20780654E-07
0.15667577E-07
0.11817324E-07
0.89503196E-08
0.67773991E-08
0.51404370E-08
0.39075796E-08
0.29744143E-08
0.22706070E-08
0.17384433E-08
0.13283532E-08
0.10156385E-08
0.77698548E-09
0.59411631E-09
0.45483961E-09
0.34933967E-09
0.26752828E-09
0.20459189E-09
0.15639579E-09
0.11890945E-09
0.90591500E-10
0.68783979E-10
0.52012845E-10
0.39392493E-10
0.29739974E-10
0.22426425E-10
0.16970066E-10
0.12898372E-10
0.98869394E-11
0.77142659E-11
