atomic number =   63
effective nuclear charge =   63
electron count =   28
net charge =   35
basis set = approximate basis set limit (UGBS)      
exchange correlation functional = PW91PW91            
cutoff radius (picometer) =  300
number of shells =   50
prepared by = Thomas A. Manz      
prepared date = July 2010           
net magnetization =    0
density in atomic units:
0.36121777E+05
0.19112325E+03
0.52191013E+02
0.83176603E+01
0.10574471E+01
0.10105399E+00
0.92879087E-02
0.10668880E-02
0.10837696E-03
0.10100238E-04
0.96379290E-06
0.10258837E-06
0.25601993E-07
0.22643308E-07
0.17374724E-07
0.76117317E-08
0.13845847E-08
0.44238838E-09
0.18327001E-08
0.29846516E-08
0.29559850E-08
0.20890916E-08
0.10753890E-08
0.36083839E-09
0.64711819E-10
0.88881701E-10
0.25373753E-09
0.41052226E-09
0.49080295E-09
0.47752241E-09
0.39579195E-09
0.28251915E-09
0.17279334E-09
0.86071955E-10
0.31738192E-10
0.85540290E-11
0.82043599E-11
0.21650555E-10
0.40637615E-10
0.58195910E-10
0.70462775E-10
0.76071517E-10
0.75025167E-10
0.68620117E-10
0.58582715E-10
0.46910760E-10
0.35017517E-10
0.24194056E-10
0.15212871E-10
0.85066129E-11
