atomic number =   48
effective nuclear charge =   48
electron count =   46
net charge =    2
basis set = approximate basis set limit (UGBS)      
exchange correlation functional = PW91PW91            
cutoff radius (picometer) =  500
number of shells =  100
prepared by = Thomas A. Manz      
prepared date = July 2010           
net magnetization =    0
density in atomic units:
0.10178701E+06
0.29852274E+03
0.83619659E+02
0.39266972E+02
0.14414274E+02
0.62874637E+01
0.37857614E+01
0.29682777E+01
0.24700153E+01
0.19648246E+01
0.14906932E+01
0.11098474E+01
0.80085367E+00
0.56660300E+00
0.40744907E+00
0.29396549E+00
0.20956367E+00
0.15133688E+00
0.11012142E+00
0.80023207E-01
0.59039515E-01
0.44189606E-01
0.33048026E-01
0.24832595E-01
0.18844718E-01
0.14337236E-01
0.10941051E-01
0.84226606E-02
0.64803027E-02
0.50132223E-02
0.39036197E-02
0.30364071E-02
0.23743932E-02
0.18637750E-02
0.14652653E-02
0.11509464E-02
0.90435595E-03
0.71191514E-03
0.56310912E-03
0.44502167E-03
0.35207372E-03
0.27903472E-03
0.22115042E-03
0.17646058E-03
0.14088038E-03
0.11196869E-03
0.89309906E-04
0.71647890E-04
0.57347203E-04
0.45933706E-04
0.36820897E-04
0.29487361E-04
0.23697135E-04
0.19088435E-04
0.15369586E-04
0.12369784E-04
0.99427662E-05
0.79991705E-05
0.64443711E-05
0.52006235E-05
0.41980084E-05
0.33908391E-05
0.27446379E-05
0.22226059E-05
0.18009578E-05
0.14657314E-05
0.11941894E-05
0.97160216E-06
0.79170087E-06
0.64534999E-06
0.52803603E-06
0.43266365E-06
0.35456543E-06
0.29123947E-06
0.23902845E-06
0.19626667E-06
0.16131723E-06
0.13257406E-06
0.10906456E-06
0.89877268E-07
0.73933649E-07
0.60743147E-07
0.49871435E-07
0.40936193E-07
0.33646245E-07
0.27673996E-07
0.22725073E-07
0.18651500E-07
0.15296292E-07
0.12507938E-07
0.10242969E-07
0.83728100E-08
0.68279316E-08
0.55749143E-08
0.45437027E-08
0.36985479E-08
0.30130498E-08
0.24483577E-08
0.19853057E-08
0.16100128E-08
