atomic number =   98
effective nuclear charge =   98
electron count =   30
net charge =   68
basis set = approximate basis set limit (UGBS)      
exchange correlation functional = PW91PW91            
cutoff radius (picometer) =  300
number of shells =   50
prepared by = Thomas A. Manz      
prepared date = July 2010           
net magnetization =    0
density in atomic units:
0.14370884E+06
0.20335532E+03
0.14497355E+02
0.23720071E+01
0.33425519E+00
0.31292558E-01
0.25104345E-02
0.22180268E-03
0.17102164E-04
0.20983148E-05
0.54082193E-06
0.76206163E-07
0.23195719E-07
0.70137673E-07
0.71375901E-07
0.35717459E-07
0.76540587E-08
0.16022157E-08
0.68781443E-08
0.12116908E-07
0.12491690E-07
0.90718633E-08
0.47856381E-08
0.16533218E-08
0.28850072E-09
0.32452591E-09
0.10032168E-08
0.16760058E-08
0.20356485E-08
0.19983704E-08
0.16649312E-08
0.11918024E-08
0.72936046E-09
0.36199854E-09
0.13081777E-09
0.31565341E-10
0.29323075E-10
0.85813627E-10
0.16604994E-09
0.24026384E-09
0.29222200E-09
0.31608777E-09
0.31181030E-09
0.28498265E-09
0.24294164E-09
0.19404617E-09
0.14430503E-09
0.99134541E-10
0.61774023E-10
0.33965802E-10
