atomic number =   40
effective nuclear charge =   40
electron count =   36
net charge =    4
basis set = approximate basis set limit (UGBS)      
exchange correlation functional = PW91PW91            
cutoff radius (picometer) =  500
number of shells =  100
prepared by = Thomas A. Manz      
prepared date = July 2010           
net magnetization =    0
density in atomic units:
0.55752059E+05
0.25241260E+03
0.53777908E+02
0.30723263E+02
0.17441988E+02
0.91273298E+01
0.44075561E+01
0.21578319E+01
0.12773727E+01
0.90307844E+00
0.70750862E+00
0.57870620E+00
0.46711907E+00
0.36800745E+00
0.28830358E+00
0.22241607E+00
0.16700535E+00
0.12467720E+00
0.92207402E-01
0.67060471E-01
0.48815910E-01
0.35635922E-01
0.25715176E-01
0.18482624E-01
0.13336809E-01
0.95916903E-02
0.68861488E-02
0.49737869E-02
0.35746591E-02
0.25764401E-02
0.18659201E-02
0.13448502E-02
0.97300269E-03
0.70556882E-03
0.51137502E-03
0.36938919E-03
0.26636090E-03
0.19218346E-03
0.13928991E-03
0.10070691E-03
0.72782859E-04
0.52653755E-04
0.38018999E-04
0.27671715E-04
0.20129895E-04
0.14527896E-04
0.10519427E-04
0.76704773E-05
0.55660962E-05
0.40366917E-05
0.29265068E-05
0.21152093E-05
0.15340331E-05
0.11148185E-05
0.80835110E-06
0.58485347E-06
0.42184848E-06
0.30427535E-06
0.21974637E-06
0.15900251E-06
0.11512886E-06
0.83457607E-07
0.60790128E-07
0.44398057E-07
0.32554318E-07
0.24126694E-07
0.17995255E-07
0.13476535E-07
0.10188293E-07
0.77692208E-08
0.60021481E-08
0.46862731E-08
0.36952450E-08
0.29460867E-08
0.23652555E-08
0.19158410E-08
0.15641881E-08
0.12840933E-08
0.10603404E-08
0.87986257E-09
0.73040379E-09
0.60614563E-09
0.50247845E-09
0.41580445E-09
0.34350167E-09
0.28281902E-09
0.23121925E-09
0.18772296E-09
0.15101587E-09
0.11996726E-09
0.94420562E-10
0.73157938E-10
0.55648396E-10
0.41714521E-10
0.30547256E-10
0.21867709E-10
0.15336067E-10
0.10529872E-10
0.72070839E-11
0.51176867E-11
