atomic number =   91
effective nuclear charge =   91
electron count =   36
net charge =   55
basis set = approximate basis set limit (UGBS)      
exchange correlation functional = PW91PW91            
cutoff radius (picometer) =  300
number of shells =   50
prepared by = Thomas A. Manz      
prepared date = July 2010           
net magnetization =    0
density in atomic units:
0.11572695E+06
0.23229930E+03
0.35784008E+02
0.12381643E+02
0.29315741E+01
0.46707889E+00
0.64931959E-01
0.95634349E-02
0.12493577E-02
0.16983453E-03
0.24718820E-04
0.33615950E-05
0.45301505E-06
0.10001262E-06
0.73568089E-07
0.40713871E-07
0.11250189E-07
0.31544416E-08
0.77385396E-08
0.13269235E-07
0.14019417E-07
0.10613371E-07
0.60041505E-08
0.24284552E-08
0.69050998E-09
0.51295507E-09
0.11290255E-08
0.18299583E-08
0.22466342E-08
0.22521771E-08
0.19280195E-08
0.14308866E-08
0.92304159E-09
0.50237131E-09
0.22216377E-09
0.85679033E-10
0.59878075E-10
0.10522626E-09
0.18395183E-09
0.26260771E-09
0.32139241E-09
0.35196193E-09
0.35243863E-09
0.32750455E-09
0.28464808E-09
0.23266193E-09
0.17815234E-09
0.12721395E-09
0.83908221E-10
0.50546088E-10
