atomic number =   74
effective nuclear charge =   74
electron count =   18
net charge =   56
basis set = approximate basis set limit (UGBS)      
exchange correlation functional = PW91PW91            
cutoff radius (picometer) =  500
number of shells =  100
prepared by = Thomas A. Manz      
prepared date = July 2010           
net magnetization =    0
density in atomic units:
0.41922431E+06
0.22386404E+03
0.52022102E+02
0.62325821E+01
0.48342380E+00
0.48340820E-01
0.43183332E-02
0.29640814E-03
0.24781597E-04
0.26248376E-05
0.25207214E-06
0.18146658E-06
0.12744633E-06
0.31811286E-07
0.35489101E-08
0.18071525E-07
0.31278791E-07
0.27467637E-07
0.14975271E-07
0.44421533E-08
0.48498361E-09
0.12357512E-08
0.35101269E-08
0.50397451E-08
0.50851399E-08
0.40070165E-08
0.25107041E-08
0.12172516E-08
0.38279946E-09
0.57844160E-10
0.10179486E-09
0.33114106E-09
0.58562749E-09
0.76677992E-09
0.83675789E-09
0.79770385E-09
0.67871264E-09
0.51928523E-09
0.35734748E-09
0.21494388E-09
0.10774530E-09
0.40366627E-10
0.90222109E-11
0.62622286E-11
0.22111715E-10
0.48312267E-10
0.76327403E-10
0.10035824E-09
0.11795440E-09
0.12726643E-09
0.12831802E-09
0.12210090E-09
0.11054014E-09
0.95586809E-10
0.78844646E-10
0.61895121E-10
0.45911473E-10
0.31947237E-10
0.20537240E-10
0.11865650E-10
0.58240162E-11
0.21956141E-11
0.64708910E-12
0.74430251E-12
0.20657608E-11
0.41599467E-11
0.66856113E-11
0.93792352E-11
0.11939502E-10
0.14192881E-10
0.15998302E-10
0.17314742E-10
0.18110291E-10
0.18436648E-10
0.18246233E-10
0.17666570E-10
0.16761934E-10
0.15586267E-10
0.14224580E-10
0.12759239E-10
0.11224886E-10
0.96853593E-11
0.81899288E-11
0.67814699E-11
0.54994754E-11
0.43542214E-11
0.33445616E-11
0.24816609E-11
0.17640439E-11
0.11819299E-11
0.73855982E-12
0.41485088E-12
0.19880416E-12
0.80245780E-13
0.42298589E-13
0.71684053E-13
0.15418047E-12
0.27845922E-12
0.43301484E-12
0.60673076E-12
