atomic number =   22
effective nuclear charge =   22
electron count =    2
net charge =   20
basis set = approximate basis set limit (UGBS)      
exchange correlation functional = PW91PW91            
cutoff radius (picometer) =  400
number of shells =   75
prepared by = Thomas A. Manz      
prepared date = July 2010           
net magnetization =    0
density in atomic units:
0.11107186E+04
0.80609980E+01
0.18375152E+00
0.35892481E-02
0.74855940E-04
0.10552571E-05
0.22177820E-07
0.47128363E-08
0.91197744E-09
0.10625959E-09
0.45988172E-09
0.36072087E-09
0.87432193E-10
0.69070656E-11
0.52439646E-10
0.83988476E-10
0.65356033E-10
0.28692024E-10
0.53659226E-11
0.76458734E-12
0.60117896E-11
0.11957594E-10
0.13947116E-10
0.11803994E-10
0.77083956E-11
0.37572354E-11
0.11542790E-11
0.10662621E-12
0.22105568E-12
0.90819539E-12
0.16276232E-11
0.21036421E-11
0.22313948E-11
0.20350813E-11
0.16429685E-11
0.11742108E-11
0.72555308E-12
0.37456553E-12
0.14529240E-12
0.27883195E-13
0.47203977E-14
0.45625101E-13
0.11934959E-12
0.20078831E-12
0.27085053E-12
0.31934318E-12
0.34213740E-12
0.34010579E-12
0.31727797E-12
0.27944915E-12
0.23318869E-12
0.18433016E-12
0.13692518E-12
0.94834392E-13
0.60492972E-13
0.33990646E-13
0.15561679E-13
0.48040566E-14
0.45877173E-15
0.11118739E-14
0.53803872E-14
0.11865930E-13
0.19440546E-13
0.27167281E-13
0.34296062E-13
0.40276281E-13
0.44772606E-13
0.47707277E-13
0.49081751E-13
0.48938237E-13
0.47530370E-13
0.45027136E-13
0.41685364E-13
0.37768389E-13
0.33538168E-13
