atomic number =   56
effective nuclear charge =   56
electron count =   46
net charge =   10
basis set = approximate basis set limit (UGBS)      
exchange correlation functional = PW91PW91            
cutoff radius (picometer) =  300
number of shells =   50
prepared by = Thomas A. Manz      
prepared date = July 2010           
net magnetization =    0
density in atomic units:
0.24820939E+05
0.17762221E+03
0.60934002E+02
0.16568422E+02
0.86374092E+01
0.63716607E+01
0.42038879E+01
0.25055647E+01
0.13620387E+01
0.71322984E+00
0.35761225E+00
0.17489402E+00
0.89648545E-01
0.45262210E-01
0.22967434E-01
0.11574533E-01
0.57595698E-02
0.29755998E-02
0.15215446E-02
0.78021042E-03
0.40214325E-03
0.20686338E-03
0.10670882E-03
0.54847889E-04
0.27989685E-04
0.14262703E-04
0.73285883E-05
0.38774683E-05
0.20641494E-05
0.11164401E-05
0.62191287E-06
0.35186943E-06
0.20314231E-06
0.11780192E-06
0.68191383E-07
0.39424677E-07
0.22445098E-07
0.12346342E-07
0.64215731E-08
0.31479916E-08
0.14145382E-08
0.54886118E-09
0.18790910E-09
0.85999645E-10
0.10106613E-09
0.15540426E-09
0.20916931E-09
0.24419541E-09
0.25578062E-09
0.24646704E-09
