atomic number =   62
effective nuclear charge =   62
electron count =    4
net charge =   58
basis set = approximate basis set limit (UGBS)      
exchange correlation functional = PW91PW91            
cutoff radius (picometer) =  300
number of shells =   50
prepared by = Thomas A. Manz      
prepared date = July 2010           
net magnetization =    0
density in atomic units:
0.33046914E+05
0.10252790E+02
0.86340979E-01
0.40399929E-03
0.50230406E-05
0.45683461E-06
0.29820205E-06
0.15374653E-06
0.12319735E-07
0.55001561E-07
0.36021781E-07
0.42382120E-08
0.27174729E-08
0.89105674E-08
0.85431662E-08
0.39766608E-08
0.67928280E-09
0.11899277E-09
0.85158081E-09
0.14888937E-08
0.14995259E-08
0.10570835E-08
0.53150279E-09
0.16255952E-09
0.13833447E-10
0.32280661E-10
0.12226771E-09
0.20561561E-09
0.24728147E-09
0.23955871E-09
0.19645970E-09
0.13766460E-09
0.81561709E-10
0.38022786E-10
0.11534571E-10
0.10899226E-11
0.21549637E-11
0.99543195E-11
0.20218707E-10
0.29380654E-10
0.35577694E-10
0.38230578E-10
0.37409367E-10
0.33891331E-10
0.28597246E-10
0.22558172E-10
0.16508741E-10
0.11084886E-10
0.66630508E-11
0.34318941E-11
