atomic number =   83
effective nuclear charge =   83
electron count =   78
net charge =    5
basis set = approximate basis set limit (UGBS)      
exchange correlation functional = PW91PW91            
cutoff radius (picometer) =  300
number of shells =   50
prepared by = Thomas A. Manz      
prepared date = July 2010           
net magnetization =    0
density in atomic units:
0.87681375E+05
0.28525986E+03
0.86139748E+02
0.45358391E+02
0.18113295E+02
0.72066169E+01
0.40803351E+01
0.28351779E+01
0.19752907E+01
0.13464785E+01
0.88238949E+00
0.56356877E+00
0.36739957E+00
0.23613237E+00
0.15251639E+00
0.98288365E-01
0.63229822E-01
0.41756950E-01
0.27444461E-01
0.18090002E-01
0.11980337E-01
0.79481238E-02
0.53066392E-02
0.35523688E-02
0.23787031E-02
0.15949144E-02
0.10739608E-02
0.73201972E-03
0.49608212E-03
0.33549237E-03
0.22801211E-03
0.15453983E-03
0.10514721E-03
0.71362694E-04
0.48446269E-04
0.33125852E-04
0.22764019E-04
0.15654947E-04
0.10740525E-04
0.74283021E-05
0.51776374E-05
0.35980131E-05
0.25167276E-05
0.17688501E-05
0.12417343E-05
0.87491094E-06
0.61488066E-06
0.43143442E-06
0.30206459E-06
0.21151001E-06
