atomic number =   82
effective nuclear charge =   82
electron count =   10
net charge =   72
basis set = approximate basis set limit (UGBS)      
exchange correlation functional = PW91PW91            
cutoff radius (picometer) =  300
number of shells =   50
prepared by = Thomas A. Manz      
prepared date = July 2010           
net magnetization =    0
density in atomic units:
0.80715648E+05
0.65658026E+01
0.76675662E-02
0.21526592E-04
0.49969867E-05
0.12689235E-05
0.95097710E-06
0.48977330E-06
0.39295436E-07
0.17065553E-06
0.11303779E-06
0.13833763E-07
0.83239948E-08
0.27414993E-07
0.26487102E-07
0.12453953E-07
0.22003894E-08
0.38180278E-09
0.25992171E-08
0.45688289E-08
0.46229753E-08
0.32755105E-08
0.16591817E-08
0.51694093E-09
0.50132128E-10
0.99725284E-10
0.37300188E-09
0.62888561E-09
0.75848594E-09
0.73680684E-09
0.60588090E-09
0.42601175E-09
0.25357841E-09
0.11930906E-09
0.37159595E-10
0.42867446E-11
0.69141919E-11
0.30422210E-10
0.61719907E-10
0.89816571E-10
0.10889360E-09
0.11718879E-09
0.11484524E-09
0.10420292E-09
0.88055833E-10
0.69596967E-10
0.51057766E-10
0.34379367E-10
0.20772091E-10
0.10797778E-10
