atomic number =   58
effective nuclear charge =   58
electron count =   54
net charge =    4
basis set = approximate basis set limit (UGBS)      
exchange correlation functional = PW91PW91            
cutoff radius (picometer) =  400
number of shells =   75
prepared by = Thomas A. Manz      
prepared date = July 2010           
net magnetization =    0
density in atomic units:
0.27834641E+05
0.23795329E+03
0.91700615E+02
0.27351913E+02
0.12208697E+02
0.89948092E+01
0.63809953E+01
0.39293430E+01
0.22451940E+01
0.13018273E+01
0.81616825E+00
0.56441265E+00
0.42443126E+00
0.33828390E+00
0.27582234E+00
0.22527523E+00
0.18228172E+00
0.14592987E+00
0.11599467E+00
0.91458388E-01
0.71588308E-01
0.55558413E-01
0.42731989E-01
0.32754455E-01
0.25027961E-01
0.19055435E-01
0.14476410E-01
0.10997538E-01
0.82825748E-02
0.62299324E-02
0.47243540E-02
0.35765078E-02
0.26870319E-02
0.20143993E-02
0.15221505E-02
0.11506049E-02
0.86615444E-03
0.65468339E-03
0.49745722E-03
0.37676431E-03
0.28455810E-03
0.21622563E-03
0.16450300E-03
0.12502971E-03
0.95216004E-04
0.72511873E-04
0.55266075E-04
0.42087941E-04
0.31956195E-04
0.24278153E-04
0.18447536E-04
0.14030252E-04
0.10639315E-04
0.80635691E-05
0.61299761E-05
0.46435748E-05
0.35058251E-05
0.26493867E-05
0.20030395E-05
0.15122720E-05
0.11383991E-05
0.85877139E-06
0.64665261E-06
0.48542842E-06
0.36360390E-06
0.27190393E-06
0.20347498E-06
0.15168440E-06
0.11265252E-06
0.83676831E-07
0.62171942E-07
0.45832234E-07
0.33615777E-07
0.24613136E-07
0.18006729E-07
