atomic number =   98
effective nuclear charge =   98
electron count =   80
net charge =   18
basis set = approximate basis set limit (UGBS)      
exchange correlation functional = PW91PW91            
cutoff radius (picometer) =  300
number of shells =   50
prepared by = Thomas A. Manz      
prepared date = July 2010           
net magnetization =    0
density in atomic units:
0.14434497E+06
0.32984879E+03
0.12108594E+03
0.37715210E+02
0.14417481E+02
0.82345695E+01
0.47603269E+01
0.26049020E+01
0.13468318E+01
0.70524651E+00
0.37618852E+00
0.20887013E+00
0.12619616E+00
0.77664867E-01
0.48850618E-01
0.30797454E-01
0.19325113E-01
0.12396852E-01
0.78603756E-02
0.49683643E-02
0.31395038E-02
0.19779620E-02
0.12489450E-02
0.78701408E-03
0.49337983E-03
0.30807219E-03
0.19230750E-03
0.12130180E-03
0.75778655E-04
0.47143458E-04
0.29515253E-04
0.18445078E-04
0.11612634E-04
0.73162423E-05
0.46282803E-05
0.29648379E-05
0.19169890E-05
0.12441861E-05
0.80709003E-06
0.52917841E-06
0.34980474E-06
0.22998657E-06
0.15205271E-06
0.10067679E-06
0.66147742E-07
0.43308034E-07
0.27947497E-07
0.17743002E-07
0.11010231E-07
0.66702621E-08
