atomic number =    9
effective nuclear charge =    9
electron count =    4
net charge =    5
basis set = approximate basis set limit (UGBS)      
exchange correlation functional = PW91PW91            
cutoff radius (picometer) =  300
number of shells =   50
prepared by = Thomas A. Manz      
prepared date = July 2010           
net magnetization =    0
density in atomic units:
0.13133287E+03
0.17557890E+02
0.29531584E+01
0.79790121E+00
0.49648651E+00
0.39412016E+00
0.30329886E+00
0.22363079E+00
0.15723887E+00
0.10846730E+00
0.72754800E-01
0.47953125E-01
0.32301120E-01
0.21475384E-01
0.14315864E-01
0.94832843E-02
0.62402450E-02
0.41884701E-02
0.27872941E-02
0.18552138E-02
0.12388396E-02
0.82819408E-03
0.55685063E-03
0.37509121E-03
0.25245230E-03
0.16989418E-03
0.11467424E-03
0.78275698E-04
0.53115429E-04
0.35984049E-04
0.24524647E-04
0.16695070E-04
0.11424583E-04
0.78081130E-05
0.53407598E-05
0.36781817E-05
0.25428042E-05
0.17555506E-05
0.12055586E-05
0.83153810E-06
0.57575022E-06
0.39575150E-06
0.27274379E-06
0.18819522E-06
0.12928855E-06
0.88935856E-07
0.60907816E-07
0.41600906E-07
0.28338194E-07
0.19316147E-07
