atomic number =   99
effective nuclear charge =   99
electron count =   80
net charge =   19
basis set = approximate basis set limit (UGBS)      
exchange correlation functional = PW91PW91            
cutoff radius (picometer) =  500
number of shells =  100
prepared by = Thomas A. Manz      
prepared date = July 2010           
net magnetization =    0
density in atomic units:
0.10311576E+07
0.73974670E+03
0.19014038E+03
0.76454544E+02
0.24666809E+02
0.13246614E+02
0.87771473E+01
0.55176630E+01
0.32980013E+01
0.18864712E+01
0.10632694E+01
0.62440825E+00
0.37142807E+00
0.22603635E+00
0.14643839E+00
0.97677149E-01
0.64966232E-01
0.43999944E-01
0.29967677E-01
0.20218622E-01
0.13765152E-01
0.94535416E-02
0.64231022E-02
0.43502380E-02
0.29610181E-02
0.20064681E-02
0.13548991E-02
0.91994938E-03
0.61968341E-03
0.41794285E-03
0.28300146E-03
0.19018188E-03
0.12822065E-03
0.86616419E-04
0.58454454E-04
0.39297149E-04
0.26382608E-04
0.17752249E-04
0.12033907E-04
0.81565304E-05
0.55427004E-05
0.37853756E-05
0.25897959E-05
0.17962249E-05
0.12505279E-05
0.86689522E-06
0.60607596E-06
0.42847208E-06
0.30227028E-06
0.21389376E-06
0.15161829E-06
0.10716894E-06
0.75940932E-07
0.53819711E-07
0.37901582E-07
0.26428992E-07
0.18167276E-07
0.12325499E-07
0.82166141E-08
0.53614526E-08
0.33972565E-08
0.20771114E-08
0.12236393E-08
0.69144546E-09
0.38569936E-09
0.23528327E-09
0.18365984E-09
0.19345921E-09
0.23812999E-09
0.29866373E-09
0.36069228E-09
0.41700604E-09
0.46197393E-09
0.49385618E-09
0.51253202E-09
0.51821408E-09
0.51145310E-09
0.49279453E-09
0.46724830E-09
0.43560219E-09
0.39828540E-09
0.35940137E-09
0.31827072E-09
0.27848079E-09
0.23991778E-09
0.20418071E-09
0.17135363E-09
0.14159500E-09
0.11591921E-09
0.93369104E-10
0.75106130E-10
0.60009990E-10
0.48312188E-10
0.39924702E-10
0.34222868E-10
0.30859225E-10
0.29605082E-10
0.30145397E-10
0.32013506E-10
0.34860091E-10
