atomic number =  105
effective nuclear charge =  105
electron count =   86
net charge =   19
basis set = approximate basis set limit (UGBS)      
exchange correlation functional = PW91PW91            
cutoff radius (picometer) =  300
number of shells =   50
prepared by = Thomas A. Manz      
prepared date = July 2010           
net magnetization =    0
density in atomic units:
0.17514477E+06
0.35816708E+03
0.12324596E+03
0.33548382E+02
0.15658004E+02
0.84263535E+01
0.41140800E+01
0.21318319E+01
0.12370766E+01
0.82345110E+00
0.57889098E+00
0.40995991E+00
0.29368052E+00
0.20506123E+00
0.14148341E+00
0.95761292E-01
0.63668363E-01
0.42760130E-01
0.28246159E-01
0.18544778E-01
0.12151759E-01
0.79428600E-02
0.52099074E-02
0.34177557E-02
0.22369206E-02
0.14623039E-02
0.95760718E-03
0.63381781E-03
0.41603492E-03
0.27196735E-03
0.17852758E-03
0.11675968E-03
0.76626849E-04
0.50132603E-04
0.32779059E-04
0.21582673E-04
0.14268261E-04
0.94238630E-05
0.61919777E-05
0.40933496E-05
0.27205904E-05
0.17963092E-05
0.11907227E-05
0.79092513E-06
0.52318001E-06
0.34654229E-06
0.22835692E-06
0.14999829E-06
0.98134905E-07
0.64241888E-07
