atomic number =   63
effective nuclear charge =   63
electron count =   48
net charge =   15
basis set = approximate basis set limit (UGBS)      
exchange correlation functional = PW91PW91            
cutoff radius (picometer) =  400
number of shells =   75
prepared by = Thomas A. Manz      
prepared date = July 2010           
net magnetization =    0
density in atomic units:
0.36383723E+05
0.27607501E+03
0.89335121E+02
0.24717098E+02
0.14271059E+02
0.10104529E+02
0.61877818E+01
0.33242083E+01
0.16837423E+01
0.87271303E+00
0.48166505E+00
0.28498369E+00
0.17926726E+00
0.11954371E+00
0.82292758E-01
0.57390686E-01
0.40017128E-01
0.27879002E-01
0.19465812E-01
0.13585570E-01
0.94569791E-02
0.65506753E-02
0.45011751E-02
0.30917332E-02
0.21209996E-02
0.14514690E-02
0.99208637E-03
0.67905459E-03
0.45979826E-03
0.31086936E-03
0.21263381E-03
0.14515474E-03
0.98075448E-04
0.66048691E-04
0.44951779E-04
0.30614141E-04
0.20726198E-04
0.14113523E-04
0.96818767E-05
0.66159250E-05
0.45056636E-05
0.30956157E-05
0.21323449E-05
0.14677001E-05
0.10133238E-05
0.69999749E-06
0.48400005E-06
0.33422029E-06
0.22962189E-06
0.15772149E-06
0.10813704E-06
0.74036357E-07
0.50323369E-07
0.34037246E-07
0.23012650E-07
0.15388498E-07
0.10170949E-07
0.66746026E-08
0.43436494E-08
0.27868021E-08
0.17572634E-08
0.10936460E-08
0.66743649E-09
0.39872664E-09
0.23146361E-09
0.13140808E-09
0.74080853E-10
0.41946960E-10
0.25352007E-10
0.17654635E-10
0.14633085E-10
0.13793281E-10
0.13773932E-10
0.13813920E-10
0.13587883E-10
