atomic number =  106
effective nuclear charge =  106
electron count =   12
net charge =   94
basis set = approximate basis set limit (UGBS)      
exchange correlation functional = PW91PW91            
cutoff radius (picometer) =  400
number of shells =   75
prepared by = Thomas A. Manz      
prepared date = July 2010           
net magnetization =    0
density in atomic units:
0.17616048E+06
0.40913956E+02
0.12334566E+01
0.17286653E-01
0.23299671E-03
0.14800043E-04
0.13402915E-05
0.33736740E-05
0.14772218E-05
0.11998905E-06
0.54654919E-06
0.49693512E-06
0.14340812E-06
0.99956639E-08
0.56036907E-07
0.10033560E-06
0.83210544E-07
0.39136719E-07
0.86355296E-08
0.96895980E-09
0.63894747E-08
0.13634087E-07
0.16505625E-07
0.14353876E-07
0.96297956E-08
0.48741340E-08
0.16246791E-08
0.21980653E-09
0.23813043E-09
0.99687281E-09
0.18433696E-08
0.24299225E-08
0.26154057E-08
0.24143931E-08
0.19715607E-08
0.14271168E-08
0.89686436E-09
0.47565885E-09
0.19513414E-09
0.46045608E-10
0.94189248E-11
0.50861242E-10
0.13356154E-09
0.22772625E-09
0.31019590E-09
0.36855075E-09
0.39756665E-09
0.39739281E-09
0.37260470E-09
0.32993386E-09
0.27674793E-09
0.22010985E-09
0.16466205E-09
0.11508881E-09
0.74393235E-10
0.42716303E-10
0.20433235E-10
0.71363518E-11
0.14134295E-11
0.16318578E-11
0.61895454E-11
0.13453790E-10
0.22095636E-10
0.31042356E-10
0.39337412E-10
0.46353168E-10
0.51676188E-10
0.55182817E-10
0.56942499E-10
0.56950694E-10
0.55418357E-10
0.52635400E-10
0.48832056E-10
0.44332947E-10
0.39461039E-10
