atomic number =   55
effective nuclear charge =   55
electron count =   18
net charge =   37
basis set = approximate basis set limit (UGBS)      
exchange correlation functional = PW91PW91            
cutoff radius (picometer) =  300
number of shells =   50
prepared by = Thomas A. Manz      
prepared date = July 2010           
net magnetization =    0
density in atomic units:
0.23211535E+05
0.80143692E+02
0.29362057E+02
0.80166569E+01
0.15485909E+01
0.21985647E+00
0.28730333E-01
0.41275644E-02
0.53201063E-03
0.71274801E-04
0.10218596E-04
0.14116468E-05
0.19668595E-06
0.22200254E-07
0.71340045E-08
0.46699209E-08
0.17301941E-08
0.46501136E-09
0.71613149E-09
0.13451318E-08
0.15700525E-08
0.13089094E-08
0.83021212E-09
0.39773329E-09
0.14149441E-09
0.65812744E-10
0.10285803E-09
0.17415745E-09
0.23013792E-09
0.24695720E-09
0.22555904E-09
0.17952799E-09
0.12584907E-09
0.76654211E-10
0.39960042E-10
0.18359423E-10
0.97021653E-11
0.10418802E-10
0.16629620E-10
0.24563684E-10
0.31571426E-10
0.36266254E-10
0.37919300E-10
0.36742723E-10
0.33306979E-10
0.28449998E-10
0.22873056E-10
0.17311869E-10
0.12274771E-10
0.81309725E-11
