atomic number =   95
effective nuclear charge =   95
electron count =   62
net charge =   33
basis set = approximate basis set limit (UGBS)      
exchange correlation functional = PW91PW91            
cutoff radius (picometer) =  300
number of shells =   50
prepared by = Thomas A. Manz      
prepared date = July 2010           
net magnetization =    0
density in atomic units:
0.13182430E+06
0.31187091E+03
0.11025879E+03
0.39550365E+02
0.10885458E+02
0.28390615E+01
0.87890851E+00
0.31317204E+00
0.10703305E+00
0.36169585E-01
0.11728765E-01
0.36535934E-02
0.12276596E-02
0.39903016E-03
0.12763205E-03
0.39378199E-04
0.11195492E-04
0.32145949E-05
0.84668534E-06
0.21607123E-06
0.60664050E-07
0.22035138E-07
0.10428642E-07
0.57470615E-08
0.40316976E-08
0.39989243E-08
0.46035176E-08
0.50563478E-08
0.49940074E-08
0.43823944E-08
0.34259287E-08
0.23710403E-08
0.14491248E-08
0.76899681E-09
0.37095527E-09
0.22263554E-09
0.24662500E-09
0.36669162E-09
0.51725629E-09
0.64492212E-09
0.72299255E-09
0.74373868E-09
0.71054646E-09
0.63644245E-09
0.53600557E-09
0.42611401E-09
0.31819719E-09
0.22248832E-09
0.14467970E-09
0.87627371E-10
