atomic number =   64
effective nuclear charge =   64
electron count =   10
net charge =   54
basis set = approximate basis set limit (UGBS)      
exchange correlation functional = PW91PW91            
cutoff radius (picometer) =  300
number of shells =   50
prepared by = Thomas A. Manz      
prepared date = July 2010           
net magnetization =    0
density in atomic units:
0.36942668E+05
0.27393930E+02
0.19479696E+00
0.91857510E-03
0.78809362E-05
0.47231526E-06
0.33275967E-06
0.17812069E-06
0.15159610E-07
0.60613225E-07
0.41024766E-07
0.55188289E-08
0.30581315E-08
0.97608899E-08
0.95457979E-08
0.45954622E-08
0.88969576E-09
0.17256430E-09
0.92697577E-09
0.16292644E-08
0.16630743E-08
0.11931001E-08
0.61747402E-09
0.20352096E-09
0.28312529E-10
0.39083223E-10
0.13304186E-09
0.22379300E-09
0.27123628E-09
0.26520852E-09
0.21979890E-09
0.15617403E-09
0.94476475E-10
0.45844693E-10
0.15587540E-10
0.29404140E-11
0.31423373E-11
0.11040987E-10
0.21953141E-10
0.31934202E-10
0.38852654E-10
0.41999605E-10
0.41318331E-10
0.37669964E-10
0.32005298E-10
0.25462505E-10
0.18833110E-10
0.12836456E-10
0.78980832E-11
0.42445444E-11
