atomic number =   82
effective nuclear charge =   82
electron count =   78
net charge =    4
basis set = approximate basis set limit (UGBS)      
exchange correlation functional = PW91PW91            
cutoff radius (picometer) =  300
number of shells =   50
prepared by = Thomas A. Manz      
prepared date = July 2010           
net magnetization =    0
density in atomic units:
0.84437539E+05
0.28264218E+03
0.83148361E+02
0.45000599E+02
0.18558903E+02
0.73171506E+01
0.40020599E+01
0.27514796E+01
0.19352318E+01
0.13436656E+01
0.90065235E+00
0.58972645E+00
0.39400333E+00
0.26003838E+00
0.17268582E+00
0.11459406E+00
0.76036595E-01
0.51750261E-01
0.35100017E-01
0.23892697E-01
0.16349936E-01
0.11217651E-01
0.77482453E-02
0.53685689E-02
0.37228297E-02
0.25858441E-02
0.18034909E-02
0.12721225E-02
0.89281576E-03
0.62558672E-03
0.44055033E-03
0.30965931E-03
0.21859663E-03
0.15407274E-03
0.10868401E-03
0.77208140E-04
0.55111508E-04
0.39358030E-04
0.28040140E-04
0.20108540E-04
0.14508893E-04
0.10429280E-04
0.75324056E-05
0.54580460E-05
0.39471356E-05
0.28621091E-05
0.20697444E-05
0.14948318E-05
0.10777846E-05
0.77797017E-06
