atomic number =   74
effective nuclear charge =   74
electron count =    4
net charge =   70
basis set = approximate basis set limit (UGBS)      
exchange correlation functional = PW91PW91            
cutoff radius (picometer) =  400
number of shells =   75
prepared by = Thomas A. Manz      
prepared date = July 2010           
net magnetization =    0
density in atomic units:
0.58395062E+05
0.79572835E+01
0.50322924E-01
0.14042217E-03
0.29258388E-05
0.32426476E-05
0.23272142E-06
0.61025764E-06
0.26588881E-06
0.19982405E-07
0.99782930E-07
0.90316398E-07
0.25495565E-07
0.14860713E-08
0.10199548E-07
0.18316905E-07
0.15103828E-07
0.70181092E-08
0.14798319E-08
0.13301871E-09
0.11590282E-08
0.24918640E-08
0.30092182E-08
0.26054052E-08
0.17368280E-08
0.86890223E-09
0.28058378E-09
0.30428000E-10
0.39339445E-10
0.18127549E-09
0.33706224E-09
0.44380502E-09
0.47653209E-09
0.43857748E-09
0.35680542E-09
0.25702609E-09
0.16035874E-09
0.83933416E-10
0.33386235E-10
0.68784570E-11
0.83309206E-12
0.88814529E-11
0.24294015E-10
0.41636954E-10
0.56735852E-10
0.67336449E-10
0.72498174E-10
0.72332827E-10
0.67684407E-10
0.59790214E-10
0.50018982E-10
0.39653603E-10
0.29543711E-10
0.20540706E-10
0.13166913E-10
0.74522541E-11
0.34557390E-11
0.10984551E-11
0.11593240E-12
0.20846500E-12
0.10819870E-11
0.24393014E-11
0.40377241E-11
0.56785384E-11
0.71971387E-11
0.84764609E-11
0.94423115E-11
0.10079181E-10
0.10384024E-10
0.10365829E-10
0.10078466E-10
0.95573089E-11
0.88565761E-11
0.80293142E-11
0.71365600E-11
