atomic number =   82
effective nuclear charge =   82
electron count =   80
net charge =    2
basis set = approximate basis set limit (UGBS)      
exchange correlation functional = PW91PW91            
cutoff radius (picometer) =  300
number of shells =   50
prepared by = Thomas A. Manz      
prepared date = July 2010           
net magnetization =    0
density in atomic units:
0.84452680E+05
0.28271494E+03
0.83236694E+02
0.45017628E+02
0.18575682E+02
0.73628154E+01
0.40393667E+01
0.27676351E+01
0.19379715E+01
0.13446691E+01
0.90719259E+00
0.60399008E+00
0.41444811E+00
0.28457883E+00
0.19899760E+00
0.14078793E+00
0.10080157E+00
0.74393213E-01
0.55208076E-01
0.41378316E-01
0.31315655E-01
0.23858452E-01
0.18332856E-01
0.14156461E-01
0.10959729E-01
0.85051637E-02
0.66263131E-02
0.52060056E-02
0.40776948E-02
0.31928997E-02
0.25098298E-02
0.19714355E-02
0.15533987E-02
0.12225352E-02
0.96246618E-03
0.76067128E-03
0.60251710E-03
0.47674583E-03
0.37600170E-03
0.29747927E-03
0.23600683E-03
0.18650833E-03
0.14777902E-03
0.11728515E-03
0.92940107E-04
0.73808333E-04
0.58529557E-04
0.46407367E-04
0.36787889E-04
0.29220289E-04
