atomic number =   68
effective nuclear charge =   68
electron count =   54
net charge =   14
basis set = approximate basis set limit (UGBS)      
exchange correlation functional = PW91PW91            
cutoff radius (picometer) =  400
number of shells =   75
prepared by = Thomas A. Manz      
prepared date = July 2010           
net magnetization =    0
density in atomic units:
0.46560406E+05
0.31731842E+03
0.83127808E+02
0.25853754E+02
0.17477282E+02
0.10587523E+02
0.54865556E+01
0.26954882E+01
0.14275802E+01
0.90292186E+00
0.65768874E+00
0.51047510E+00
0.40154818E+00
0.31501594E+00
0.24391198E+00
0.18585120E+00
0.13927276E+00
0.10322046E+00
0.76211870E-01
0.56059565E-01
0.41091025E-01
0.29972717E-01
0.21725411E-01
0.15756862E-01
0.11432744E-01
0.82918443E-02
0.60187001E-02
0.43821954E-02
0.31671368E-02
0.22902938E-02
0.16743921E-02
0.12231992E-02
0.88669534E-03
0.64143509E-03
0.46823666E-03
0.34196669E-03
0.24853289E-03
0.18143254E-03
0.13320279E-03
0.97425211E-04
0.71018891E-04
0.52119794E-04
0.38304468E-04
0.28120165E-04
0.20688982E-04
0.15222744E-04
0.11210655E-04
0.82483457E-05
0.60490634E-05
0.44381632E-05
0.32573180E-05
0.23931525E-05
0.17522719E-05
0.12829693E-05
0.94239874E-06
0.69013424E-06
0.50359108E-06
0.36834120E-06
0.26971477E-06
0.19750904E-06
0.14444181E-06
0.10607521E-06
0.77940960E-07
0.57270828E-07
0.42110752E-07
0.31022850E-07
0.22944981E-07
0.16969217E-07
0.12549203E-07
0.93248111E-08
0.69596444E-08
0.51771627E-08
0.38504782E-08
0.28712970E-08
0.21471276E-08
