atomic number =  101
effective nuclear charge =  101
electron count =   80
net charge =   21
basis set = approximate basis set limit (UGBS)      
exchange correlation functional = PW91PW91            
cutoff radius (picometer) =  300
number of shells =   50
prepared by = Thomas A. Manz      
prepared date = July 2010           
net magnetization =    0
density in atomic units:
0.15725455E+06
0.34094550E+03
0.12307580E+03
0.35429153E+02
0.14605264E+02
0.83564043E+01
0.45104694E+01
0.23214877E+01
0.11500714E+01
0.58915228E+00
0.31180462E+00
0.17285228E+00
0.10431533E+00
0.63978143E-01
0.40001482E-01
0.25013601E-01
0.15540702E-01
0.98661082E-02
0.61862739E-02
0.38657463E-02
0.24152517E-02
0.15047373E-02
0.93997357E-03
0.58618287E-03
0.36379686E-03
0.22494947E-03
0.13911474E-03
0.86978340E-04
0.53869851E-04
0.33235665E-04
0.20641539E-04
0.12803644E-04
0.80035252E-05
0.50094936E-05
0.31507388E-05
0.20084569E-05
0.12936090E-05
0.83741861E-06
0.54277666E-06
0.35568650E-06
0.23534646E-06
0.15533342E-06
0.10315443E-06
0.68578885E-07
0.45198721E-07
0.29711911E-07
0.19186659E-07
0.12161774E-07
0.74891400E-08
0.44705217E-08
